##TITLE=No Description
##DATA TYPE=INFRARED SPECTRUM
##XUNITS=1/CM
##YUNITS=Abs
399.264912  	0.240735 
401.193728  	0.235808 
403.122544  	0.226913 
405.051360  	0.218910 
406.980176  	0.225487 
408.908992  	0.228654 
410.837808  	0.227569 
412.766624  	0.228674 
414.695440  	0.229993 
416.624256  	0.222319 
418.553072  	0.216161 
420.481888  	0.214664 
422.410704  	0.218951 
424.339520  	0.219334 
426.268336  	0.221640 
428.197152  	0.216574 
430.125968  	0.213584 
432.054784  	0.211533 
433.983600  	0.216670 
435.912416  	0.215084 
437.841232  	0.207480 
439.770048  	0.203908 
441.698864  	0.205971 
443.627680  	0.207392 
445.556496  	0.207918 
447.485312  	0.205594 
449.414128  	0.204193 
451.342944  	0.203128 
453.271760  	0.206989 
455.200576  	0.209888 
457.129392  	0.208383 
459.058208  	0.203556 
460.987024  	0.203103 
462.915840  	0.202101 
464.844656  	0.206346 
466.773472  	0.208946 
468.702288  	0.207697 
470.631104  	0.204889 
472.559920  	0.205186 
474.488736  	0.205096 
476.417552  	0.205545 
478.346368  	0.204308 
480.275184  	0.205155 
482.204000  	0.208111 
484.132816  	0.209648 
486.061632  	0.207390 
487.990448  	0.207603 
489.919264  	0.206556 
491.848080  	0.207924 
493.776896  	0.206843 
495.705712  	0.207655 
497.634528  	0.206570 
499.563344  	0.207446 
501.492160  	0.210520 
503.420976  	0.213353 
505.349792  	0.212031 
507.278608  	0.210931 
509.207424  	0.212725 
511.136240  	0.214531 
513.065056  	0.213452 
514.993872  	0.215384 
516.922688  	0.215602 
518.851504  	0.216392 
520.780320  	0.216857 
522.709136  	0.218180 
524.637952  	0.218025 
526.566768  	0.219801 
528.495584  	0.220024 
530.424400  	0.218664 
532.353216  	0.217761 
534.282032  	0.219145 
536.210848  	0.219422 
538.139664  	0.219715 
540.068480  	0.218789 
541.997296  	0.217724 
543.926112  	0.216050 
545.854928  	0.216008 
547.783744  	0.215734 
549.712560  	0.216205 
551.641376  	0.215934 
553.570192  	0.215978 
555.499008  	0.215413 
557.427824  	0.215536 
559.356640  	0.215789 
561.285456  	0.215103 
563.214272  	0.213620 
565.143088  	0.212941 
567.071904  	0.211989 
569.000720  	0.211709 
570.929536  	0.211376 
572.858352  	0.211328 
574.787168  	0.210202 
576.715984  	0.209344 
578.644800  	0.208551 
580.573616  	0.208207 
582.502432  	0.206931 
584.431248  	0.206327 
586.360064  	0.205346 
588.288880  	0.205350 
590.217696  	0.205779 
592.146512  	0.206017 
594.075328  	0.204977 
596.004144  	0.204313 
597.932960  	0.203521 
599.861776  	0.202950 
601.790592  	0.202647 
603.719408  	0.202902 
605.648224  	0.202009 
607.577040  	0.201330 
609.505856  	0.200905 
611.434672  	0.200863 
613.363488  	0.200620 
615.292304  	0.200789 
617.221120  	0.199816 
619.149936  	0.199521 
621.078752  	0.198710 
623.007568  	0.197843 
624.936384  	0.197517 
626.865200  	0.197627 
628.794016  	0.197015 
630.722832  	0.196585 
632.651648  	0.195907 
634.580464  	0.195548 
636.509280  	0.195230 
638.438096  	0.195145 
640.366912  	0.195604 
642.295728  	0.196062 
644.224544  	0.194722 
646.153360  	0.193484 
648.082176  	0.191718 
650.010992  	0.190702 
651.939808  	0.190041 
653.868624  	0.189228 
655.797440  	0.187646 
657.726256  	0.186624 
659.655072  	0.185070 
661.583888  	0.183610 
663.512704  	0.182457 
665.441520  	0.182013 
667.370336  	0.179537 
669.299152  	0.177650 
671.227968  	0.176892 
673.156784  	0.175703 
675.085600  	0.174892 
677.014416  	0.174082 
678.943232  	0.172704 
680.872048  	0.171798 
682.800864  	0.171063 
684.729680  	0.170944 
686.658496  	0.170152 
688.587312  	0.169496 
690.516128  	0.168804 
692.444944  	0.168024 
694.373760  	0.166737 
696.302576  	0.165968 
698.231392  	0.165464 
700.160208  	0.164583 
702.089024  	0.162948 
704.017840  	0.161505 
705.946656  	0.160398 
707.875472  	0.159649 
709.804288  	0.158226 
711.733104  	0.157227 
713.661920  	0.156301 
715.590736  	0.155305 
717.519552  	0.154342 
719.448368  	0.153685 
721.377184  	0.153098 
723.306000  	0.152796 
725.234816  	0.152963 
727.163632  	0.152354 
729.092448  	0.151121 
731.021264  	0.150274 
732.950080  	0.149178 
734.878896  	0.147968 
736.807712  	0.146833 
738.736528  	0.145855 
740.665344  	0.144669 
742.594160  	0.144104 
744.522976  	0.143262 
746.451792  	0.142534 
748.380608  	0.141480 
750.309424  	0.140443 
752.238240  	0.139698 
754.167056  	0.139455 
756.095872  	0.138867 
758.024688  	0.137991 
759.953504  	0.137234 
761.882320  	0.136929 
763.811136  	0.136097 
765.739952  	0.135049 
767.668768  	0.134125 
769.597584  	0.133150 
771.526400  	0.132437 
773.455216  	0.132085 
775.384032  	0.131510 
777.312848  	0.131593 
779.241664  	0.131897 
781.170480  	0.131870 
783.099296  	0.130446 
785.028112  	0.128589 
786.956928  	0.126460 
788.885744  	0.124560 
790.814560  	0.123010 
792.743376  	0.121662 
794.672192  	0.120365 
796.601008  	0.119294 
798.529824  	0.118107 
800.458640  	0.116818 
802.387456  	0.115235 
804.316272  	0.113849 
806.245088  	0.112627 
808.173904  	0.111618 
810.102720  	0.110663 
812.031536  	0.109747 
813.960352  	0.109051 
815.889168  	0.108499 
817.817984  	0.107480 
819.746800  	0.106382 
821.675616  	0.105519 
823.604432  	0.104793 
825.533248  	0.103818 
827.462064  	0.102598 
829.390880  	0.101713 
831.319696  	0.100836 
833.248512  	0.099492 
835.177328  	0.098489 
837.106144  	0.097091 
839.034960  	0.095879 
840.963776  	0.094988 
842.892592  	0.093999 
844.821408  	0.092502 
846.750224  	0.091088 
848.679040  	0.089939 
850.607856  	0.088791 
852.536672  	0.087971 
854.465488  	0.087458 
856.394304  	0.086671 
858.323120  	0.085626 
860.251936  	0.084421 
862.180752  	0.083650 
864.109568  	0.082779 
866.038384  	0.081986 
867.967200  	0.081259 
869.896016  	0.080662 
871.824832  	0.079940 
873.753648  	0.079659 
875.682464  	0.079476 
877.611280  	0.079036 
879.540096  	0.078312 
881.468912  	0.078010 
883.397728  	0.077915 
885.326544  	0.077683 
887.255360  	0.077151 
889.184176  	0.076669 
891.112992  	0.076056 
893.041808  	0.075465 
894.970624  	0.074657 
896.899440  	0.073683 
898.828256  	0.072736 
900.757072  	0.071700 
902.685888  	0.070874 
904.614704  	0.070274 
906.543520  	0.069998 
908.472336  	0.069983 
910.401152  	0.070050 
912.329968  	0.070201 
914.258784  	0.070573 
916.187600  	0.071170 
918.116416  	0.071262 
920.045232  	0.070858 
921.974048  	0.070365 
923.902864  	0.070017 
925.831680  	0.069397 
927.760496  	0.068879 
929.689312  	0.068493 
931.618128  	0.068221 
933.546944  	0.067773 
935.475760  	0.067302 
937.404576  	0.066970 
939.333392  	0.066633 
941.262208  	0.066277 
943.191024  	0.066217 
945.119840  	0.066354 
947.048656  	0.066418 
948.977472  	0.066759 
950.906288  	0.067447 
952.835104  	0.068176 
954.763920  	0.068852 
956.692736  	0.069426 
958.621552  	0.070076 
960.550368  	0.070127 
962.479184  	0.069740 
964.408000  	0.068912 
966.336816  	0.067774 
968.265632  	0.065902 
970.194448  	0.063628 
972.123264  	0.061116 
974.052080  	0.058363 
975.980896  	0.055678 
977.909712  	0.053056 
979.838528  	0.050681 
981.767344  	0.048511 
983.696160  	0.046869 
985.624976  	0.045613 
987.553792  	0.044797 
989.482608  	0.044434 
991.411424  	0.044565 
993.340240  	0.044786 
995.269056  	0.045373 
997.197872  	0.046334 
999.126688  	0.047159 
1001.055504  	0.047916 
1002.984320  	0.048579 
1004.913136  	0.049525 
1006.841952  	0.050455 
1008.770768  	0.051319 
1010.699584  	0.051961 
1012.628400  	0.052336 
1014.557216  	0.052620 
1016.486032  	0.052659 
1018.414848  	0.052546 
1020.343664  	0.052188 
1022.272480  	0.052035 
1024.201296  	0.051908 
1026.130112  	0.051181 
1028.058928  	0.050605 
1029.987744  	0.050705 
1031.916560  	0.050789 
1033.845376  	0.050767 
1035.774192  	0.050793 
1037.703008  	0.051110 
1039.631824  	0.051890 
1041.560640  	0.052770 
1043.489456  	0.053861 
1045.418272  	0.055615 
1047.347088  	0.058204 
1049.275904  	0.060778 
1051.204720  	0.063404 
1053.133536  	0.066074 
1055.062352  	0.068520 
1056.991168  	0.070438 
1058.919984  	0.072005 
1060.848800  	0.072995 
1062.777616  	0.073336 
1064.706432  	0.072817 
1066.635248  	0.072324 
1068.564064  	0.071894 
1070.492880  	0.071126 
1072.421696  	0.070067 
1074.350512  	0.068921 
1076.279328  	0.067782 
1078.208144  	0.067058 
1080.136960  	0.066971 
1082.065776  	0.066871 
1083.994592  	0.066475 
1085.923408  	0.066233 
1087.852224  	0.065884 
1089.781040  	0.065538 
1091.709856  	0.064901 
1093.638672  	0.063819 
1095.567488  	0.062058 
1097.496304  	0.060052 
1099.425120  	0.058032 
1101.353936  	0.055917 
1103.282752  	0.053806 
1105.211568  	0.051737 
1107.140384  	0.049600 
1109.069200  	0.047537 
1110.998016  	0.045263 
1112.926832  	0.043138 
1114.855648  	0.041204 
1116.784464  	0.039351 
1118.713280  	0.037611 
1120.642096  	0.035638 
1122.570912  	0.033820 
1124.499728  	0.032277 
1126.428544  	0.030741 
1128.357360  	0.029350 
1130.286176  	0.028089 
1132.214992  	0.026849 
1134.143808  	0.025590 
1136.072624  	0.024539 
1138.001440  	0.023603 
1139.930256  	0.022559 
1141.859072  	0.021493 
1143.787888  	0.020868 
1145.716704  	0.020148 
1147.645520  	0.019232 
1149.574336  	0.018725 
1151.503152  	0.018328 
1153.431968  	0.018286 
1155.360784  	0.018157 
1157.289600  	0.017895 
1159.218416  	0.017772 
1161.147232  	0.017909 
1163.076048  	0.017948 
1165.004864  	0.017993 
1166.933680  	0.018272 
1168.862496  	0.018596 
1170.791312  	0.019011 
1172.720128  	0.019314 
1174.648944  	0.019801 
1176.577760  	0.020368 
1178.506576  	0.020958 
1180.435392  	0.021225 
1182.364208  	0.021632 
1184.293024  	0.022212 
1186.221840  	0.022732 
1188.150656  	0.023299 
1190.079472  	0.024063 
1192.008288  	0.024946 
1193.937104  	0.025842 
1195.865920  	0.027142 
1197.794736  	0.028423 
1199.723552  	0.029713 
1201.652368  	0.031241 
1203.581184  	0.032814 
1205.510000  	0.034528 
1207.438816  	0.036281 
1209.367632  	0.037821 
1211.296448  	0.038848 
1213.225264  	0.040054 
1215.154080  	0.041362 
1217.082896  	0.042619 
1219.011712  	0.043550 
1220.940528  	0.044251 
1222.869344  	0.044877 
1224.798160  	0.045582 
1226.726976  	0.045942 
1228.655792  	0.046255 
1230.584608  	0.046538 
1232.513424  	0.046670 
1234.442240  	0.046545 
1236.371056  	0.046153 
1238.299872  	0.045576 
1240.228688  	0.044541 
1242.157504  	0.043352 
1244.086320  	0.042362 
1246.015136  	0.041182 
1247.943952  	0.039584 
1249.872768  	0.037877 
1251.801584  	0.036309 
1253.730400  	0.034799 
1255.659216  	0.033453 
1257.588032  	0.031817 
1259.516848  	0.030223 
1261.445664  	0.028916 
1263.374480  	0.027838 
1265.303296  	0.026802 
1267.232112  	0.025925 
1269.160928  	0.025156 
1271.089744  	0.024565 
1273.018560  	0.024394 
1274.947376  	0.024448 
1276.876192  	0.024524 
1278.805008  	0.024397 
1280.733824  	0.023896 
1282.662640  	0.023123 
1284.591456  	0.022289 
1286.520272  	0.021409 
1288.449088  	0.020664 
1290.377904  	0.020192 
1292.306720  	0.019680 
1294.235536  	0.019075 
1296.164352  	0.018316 
1298.093168  	0.017423 
1300.021984  	0.016503 
1301.950800  	0.015657 
1303.879616  	0.014884 
1305.808432  	0.014232 
1307.737248  	0.013728 
1309.666064  	0.013314 
1311.594880  	0.012996 
1313.523696  	0.012787 
1315.452512  	0.012657 
1317.381328  	0.012673 
1319.310144  	0.012728 
1321.238960  	0.012796 
1323.167776  	0.013069 
1325.096592  	0.013229 
1327.025408  	0.013267 
1328.954224  	0.013221 
1330.883040  	0.013047 
1332.811856  	0.012703 
1334.740672  	0.012230 
1336.669488  	0.012035 
1338.598304  	0.012071 
1340.527120  	0.012063 
1342.455936  	0.011813 
1344.384752  	0.011637 
1346.313568  	0.011681 
1348.242384  	0.011980 
1350.171200  	0.012337 
1352.100016  	0.012739 
1354.028832  	0.013135 
1355.957648  	0.013743 
1357.886464  	0.014159 
1359.815280  	0.014414 
1361.744096  	0.014889 
1363.672912  	0.015421 
1365.601728  	0.015502 
1367.530544  	0.015475 
1369.459360  	0.015553 
1371.388176  	0.015266 
1373.316992  	0.015009 
1375.245808  	0.014784 
1377.174624  	0.014123 
1379.103440  	0.013537 
1381.032256  	0.013000 
1382.961072  	0.012672 
1384.889888  	0.012293 
1386.818704  	0.012231 
1388.747520  	0.012300 
1390.676336  	0.011822 
1392.605152  	0.010987 
1394.533968  	0.010863 
1396.462784  	0.011358 
1398.391600  	0.011629 
1400.320416  	0.011894 
1402.249232  	0.011631 
1404.178048  	0.011880 
1406.106864  	0.012397 
1408.035680  	0.012670 
1409.964496  	0.012998 
1411.893312  	0.013570 
1413.822128  	0.013984 
1415.750944  	0.014224 
1417.679760  	0.014524 
1419.608576  	0.015425 
1421.537392  	0.015162 
1423.466208  	0.014671 
1425.395024  	0.014435 
1427.323840  	0.013755 
1429.252656  	0.013453 
1431.181472  	0.013364 
1433.110288  	0.013101 
1435.039104  	0.012837 
1436.967920  	0.013731 
1438.896736  	0.013844 
1440.825552  	0.013513 
1442.754368  	0.013431 
1444.683184  	0.013324 
1446.612000  	0.013321 
1448.540816  	0.013730 
1450.469632  	0.013739 
1452.398448  	0.013717 
1454.327264  	0.013433 
1456.256080  	0.013719 
1458.184896  	0.015114 
1460.113712  	0.014774 
1462.042528  	0.014135 
1463.971344  	0.014239 
1465.900160  	0.015221 
1467.828976  	0.015420 
1469.757792  	0.015469 
1471.686608  	0.016329 
1473.615424  	0.018380 
1475.544240  	0.019109 
1477.473056  	0.019666 
1479.401872  	0.019705 
1481.330688  	0.019939 
1483.259504  	0.019993 
1485.188320  	0.019757 
1487.117136  	0.019502 
1489.045952  	0.019390 
1490.974768  	0.018974 
1492.903584  	0.017832 
1494.832400  	0.016633 
1496.761216  	0.016180 
1498.690032  	0.015597 
1500.618848  	0.014837 
1502.547664  	0.013747 
1504.476480  	0.012462 
1506.405296  	0.012972 
1508.334112  	0.013968 
1510.262928  	0.012846 
1512.191744  	0.012256 
1514.120560  	0.011785 
1516.049376  	0.011727 
1517.978192  	0.012060 
1519.907008  	0.011721 
1521.835824  	0.013114 
1523.764640  	0.013744 
1525.693456  	0.014000 
1527.622272  	0.014648 
1529.551088  	0.014666 
1531.479904  	0.014364 
1533.408720  	0.014834 
1535.337536  	0.014734 
1537.266352  	0.013196 
1539.195168  	0.012696 
1541.123984  	0.013437 
1543.052800  	0.012946 
1544.981616  	0.012462 
1546.910432  	0.012030 
1548.839248  	0.011525 
1550.768064  	0.011640 
1552.696880  	0.011333 
1554.625696  	0.011481 
1556.554512  	0.010733 
1558.483328  	0.011851 
1560.412144  	0.014456 
1562.340960  	0.013719 
1564.269776  	0.013828 
1566.198592  	0.014698 
1568.127408  	0.014996 
1570.056224  	0.016707 
1571.985040  	0.017613 
1573.913856  	0.017494 
1575.842672  	0.018495 
1577.771488  	0.019687 
1579.700304  	0.019096 
1581.629120  	0.018921 
1583.557936  	0.018900 
1585.486752  	0.019245 
1587.415568  	0.019744 
1589.344384  	0.020787 
1591.273200  	0.021829 
1593.202016  	0.023093 
1595.130832  	0.024323 
1597.059648  	0.025587 
1598.988464  	0.026462 
1600.917280  	0.027176 
1602.846096  	0.027657 
1604.774912  	0.028077 
1606.703728  	0.028101 
1608.632544  	0.027947 
1610.561360  	0.027714 
1612.490176  	0.027635 
1614.418992  	0.026984 
1616.347808  	0.027678 
1618.276624  	0.029219 
1620.205440  	0.029403 
1622.134256  	0.029977 
1624.063072  	0.032221 
1625.991888  	0.033460 
1627.920704  	0.035317 
1629.849520  	0.037446 
1631.778336  	0.038735 
1633.707152  	0.039786 
1635.635968  	0.043176 
1637.564784  	0.045850 
1639.493600  	0.046461 
1641.422416  	0.047593 
1643.351232  	0.048270 
1645.280048  	0.048834 
1647.208864  	0.050961 
1649.137680  	0.051204 
1651.066496  	0.049813 
1652.995312  	0.051387 
1654.924128  	0.053046 
1656.852944  	0.051350 
1658.781760  	0.050659 
1660.710576  	0.050285 
1662.639392  	0.050512 
1664.568208  	0.050426 
1666.497024  	0.049408 
1668.425840  	0.048983 
1670.354656  	0.049521 
1672.283472  	0.049073 
1674.212288  	0.048686 
1676.141104  	0.049759 
1678.069920  	0.049494 
1679.998736  	0.049423 
1681.927552  	0.049223 
1683.856368  	0.050427 
1685.785184  	0.052205 
1687.714000  	0.051342 
1689.642816  	0.051254 
1691.571632  	0.050921 
1693.500448  	0.049774 
1695.429264  	0.049508 
1697.358080  	0.049318 
1699.286896  	0.047824 
1701.215712  	0.048270 
1703.144528  	0.046431 
1705.073344  	0.044996 
1707.002160  	0.043877 
1708.930976  	0.041998 
1710.859792  	0.040114 
1712.788608  	0.038188 
1714.717424  	0.036171 
1716.646240  	0.034285 
1718.575056  	0.032781 
1720.503872  	0.030256 
1722.432688  	0.027960 
1724.361504  	0.025989 
1726.290320  	0.023860 
1728.219136  	0.021707 
1730.147952  	0.019918 
1732.076768  	0.017827 
1734.005584  	0.016849 
1735.934400  	0.015660 
1737.863216  	0.013544 
1739.792032  	0.012377 
1741.720848  	0.011595 
1743.649664  	0.010723 
1745.578480  	0.009662 
1747.507296  	0.008870 
1749.436112  	0.008496 
1751.364928  	0.008427 
1753.293744  	0.008001 
1755.222560  	0.007109 
1757.151376  	0.007093 
1759.080192  	0.006592 
1761.009008  	0.006348 
1762.937824  	0.006518 
1764.866640  	0.005982 
1766.795456  	0.005645 
1768.724272  	0.005765 
1770.653088  	0.005225 
1772.581904  	0.005807 
1774.510720  	0.005824 
1776.439536  	0.005432 
1778.368352  	0.005286 
1780.297168  	0.005420 
1782.225984  	0.005230 
1784.154800  	0.005110 
1786.083616  	0.005239 
1788.012432  	0.004861 
1789.941248  	0.004485 
1791.870064  	0.004905 
1793.798880  	0.005183 
1795.727696  	0.004823 
1797.656512  	0.004274 
1799.585328  	0.004105 
1801.514144  	0.004575 
1803.442960  	0.004592 
1805.371776  	0.004269 
1807.300592  	0.004304 
1809.229408  	0.004365 
1811.158224  	0.004426 
1813.087040  	0.004377 
1815.015856  	0.003925 
1816.944672  	0.003838 
1818.873488  	0.004059 
1820.802304  	0.004197 
1822.731120  	0.004077 
1824.659936  	0.004221 
1826.588752  	0.004463 
1828.517568  	0.004098 
1830.446384  	0.004428 
1832.375200  	0.004363 
1834.304016  	0.004136 
1836.232832  	0.003953 
1838.161648  	0.004056 
1840.090464  	0.003855 
1842.019280  	0.003516 
1843.948096  	0.004106 
1845.876912  	0.004394 
1847.805728  	0.004109 
1849.734544  	0.004156 
1851.663360  	0.003832 
1853.592176  	0.003960 
1855.520992  	0.003946 
1857.449808  	0.004044 
1859.378624  	0.003753 
1861.307440  	0.003706 
1863.236256  	0.004021 
1865.165072  	0.003999 
1867.093888  	0.003613 
1869.022704  	0.003837 
1870.951520  	0.003889 
1872.880336  	0.003619 
1874.809152  	0.003884 
1876.737968  	0.004216 
1878.666784  	0.004206 
1880.595600  	0.004168 
1882.524416  	0.003709 
1884.453232  	0.003833 
1886.382048  	0.003986 
1888.310864  	0.003713 
1890.239680  	0.003526 
1892.168496  	0.003107 
1894.097312  	0.003212 
1896.026128  	0.003773 
1897.954944  	0.003709 
1899.883760  	0.003734 
1901.812576  	0.003904 
1903.741392  	0.004023 
1905.670208  	0.003916 
1907.599024  	0.003717 
1909.527840  	0.003666 
1911.456656  	0.003912 
1913.385472  	0.003793 
1915.314288  	0.003229 
1917.243104  	0.003462 
1919.171920  	0.004039 
1921.100736  	0.003575 
1923.029552  	0.003614 
1924.958368  	0.003689 
1926.887184  	0.003694 
1928.816000  	0.003751 
1930.744816  	0.004442 
1932.673632  	0.004763 
1934.602448  	0.004721 
1936.531264  	0.004474 
1938.460080  	0.004332 
1940.388896  	0.003654 
1942.317712  	0.003454 
1944.246528  	0.003462 
1946.175344  	0.003603 
1948.104160  	0.003807 
1950.032976  	0.004581 
1951.961792  	0.004203 
1953.890608  	0.003738 
1955.819424  	0.004072 
1957.748240  	0.003905 
1959.677056  	0.003065 
1961.605872  	0.002897 
1963.534688  	0.003482 
1965.463504  	0.002795 
1967.392320  	0.002470 
1969.321136  	0.002554 
1971.249952  	0.002753 
1973.178768  	0.001749 
1975.107584  	0.002131 
1977.036400  	0.004372 
1978.965216  	0.005877 
1980.894032  	0.005991 
1982.822848  	0.004936 
1984.751664  	0.004431 
1986.680480  	0.004477 
1988.609296  	0.004838 
1990.538112  	0.004684 
1992.466928  	0.004472 
1994.395744  	0.004134 
1996.324560  	0.003390 
1998.253376  	0.002940 
2000.182192  	0.003643 
2002.111008  	0.003607 
2004.039824  	0.003477 
2005.968640  	0.004082 
2007.897456  	0.004919 
2009.826272  	0.004704 
2011.755088  	0.004910 
2013.683904  	0.003685 
2015.612720  	0.003629 
2017.541536  	0.004665 
2019.470352  	0.005011 
2021.399168  	0.004907 
2023.327984  	0.005041 
2025.256800  	0.004109 
2027.185616  	0.003461 
2029.114432  	0.004593 
2031.043248  	0.005081 
2032.972064  	0.005036 
2034.900880  	0.005811 
2036.829696  	0.006055 
2038.758512  	0.005196 
2040.687328  	0.003804 
2042.616144  	0.003595 
2044.544960  	0.004803 
2046.473776  	0.005805 
2048.402592  	0.006564 
2050.331408  	0.006235 
2052.260224  	0.004794 
2054.189040  	0.004504 
2056.117856  	0.004367 
2058.046672  	0.004267 
2059.975488  	0.004939 
2061.904304  	0.004660 
2063.833120  	0.004179 
2065.761936  	0.004344 
2067.690752  	0.003743 
2069.619568  	0.003774 
2071.548384  	0.004652 
2073.477200  	0.004861 
2075.406016  	0.004451 
2077.334832  	0.004024 
2079.263648  	0.003997 
2081.192464  	0.003950 
2083.121280  	0.003944 
2085.050096  	0.004118 
2086.978912  	0.004063 
2088.907728  	0.003933 
2090.836544  	0.003749 
2092.765360  	0.003510 
2094.694176  	0.003669 
2096.622992  	0.004309 
2098.551808  	0.004604 
2100.480624  	0.004457 
2102.409440  	0.004051 
2104.338256  	0.004237 
2106.267072  	0.004608 
2108.195888  	0.004635 
2110.124704  	0.004123 
2112.053520  	0.003843 
2113.982336  	0.003508 
2115.911152  	0.003654 
2117.839968  	0.003929 
2119.768784  	0.003403 
2121.697600  	0.002688 
2123.626416  	0.003274 
2125.555232  	0.003247 
2127.484048  	0.003137 
2129.412864  	0.002945 
2131.341680  	0.002170 
2133.270496  	0.002560 
2135.199312  	0.003303 
2137.128128  	0.003241 
2139.056944  	0.002607 
2140.985760  	0.002738 
2142.914576  	0.003535 
2144.843392  	0.002953 
2146.772208  	0.002839 
2148.701024  	0.003212 
2150.629840  	0.002436 
2152.558656  	0.001337 
2154.487472  	0.001294 
2156.416288  	0.001155 
2158.345104  	0.002577 
2160.273920  	0.005704 
2162.202736  	0.005946 
2164.131552  	0.005861 
2166.060368  	0.006513 
2167.989184  	0.006188 
2169.918000  	0.005087 
2171.846816  	0.004435 
2173.775632  	0.004565 
2175.704448  	0.004825 
2177.633264  	0.005551 
2179.562080  	0.005216 
2181.490896  	0.005948 
2183.419712  	0.006962 
2185.348528  	0.006548 
2187.277344  	0.006421 
2189.206160  	0.005604 
2191.134976  	0.005204 
2193.063792  	0.005122 
2194.992608  	0.004984 
2196.921424  	0.004714 
2198.850240  	0.004457 
2200.779056  	0.005310 
2202.707872  	0.005824 
2204.636688  	0.004930 
2206.565504  	0.004636 
2208.494320  	0.004539 
2210.423136  	0.004928 
2212.351952  	0.005324 
2214.280768  	0.004660 
2216.209584  	0.004327 
2218.138400  	0.004081 
2220.067216  	0.004458 
2221.996032  	0.004606 
2223.924848  	0.004650 
2225.853664  	0.005047 
2227.782480  	0.005165 
2229.711296  	0.004615 
2231.640112  	0.003942 
2233.568928  	0.003213 
2235.497744  	0.003418 
2237.426560  	0.004269 
2239.355376  	0.004240 
2241.284192  	0.003741 
2243.213008  	0.004590 
2245.141824  	0.004930 
2247.070640  	0.004325 
2248.999456  	0.004020 
2250.928272  	0.003798 
2252.857088  	0.004057 
2254.785904  	0.004874 
2256.714720  	0.004605 
2258.643536  	0.003962 
2260.572352  	0.003964 
2262.501168  	0.004280 
2264.429984  	0.004753 
2266.358800  	0.004709 
2268.287616  	0.004735 
2270.216432  	0.004866 
2272.145248  	0.004695 
2274.074064  	0.004717 
2276.002880  	0.005293 
2277.931696  	0.005489 
2279.860512  	0.005497 
2281.789328  	0.005781 
2283.718144  	0.005662 
2285.646960  	0.005399 
2287.575776  	0.005198 
2289.504592  	0.005211 
2291.433408  	0.004896 
2293.362224  	0.004469 
2295.291040  	0.004272 
2297.219856  	0.004273 
2299.148672  	0.003821 
2301.077488  	0.003312 
2303.006304  	0.003229 
2304.935120  	0.003045 
2306.863936  	0.002636 
2308.792752  	0.002367 
2310.721568  	0.002019 
2312.650384  	0.001637 
2314.579200  	0.001140 
2316.508016  	0.000614 
2318.436832  	-0.000160 
2320.365648  	-0.000579 
2322.294464  	-0.000592 
2324.223280  	-0.001300 
2326.152096  	-0.002461 
2328.080912  	-0.003316 
2330.009728  	-0.004042 
2331.938544  	-0.004494 
2333.867360  	-0.004656 
2335.796176  	-0.004854 
2337.724992  	-0.005383 
2339.653808  	-0.005901 
2341.582624  	-0.006062 
2343.511440  	-0.005446 
2345.440256  	-0.003535 
2347.369072  	-0.001758 
2349.297888  	-0.002171 
2351.226704  	-0.003998 
2353.155520  	-0.005835 
2355.084336  	-0.007244 
2357.013152  	-0.008576 
2358.941968  	-0.009806 
2360.870784  	-0.009669 
2362.799600  	-0.008710 
2364.728416  	-0.007753 
2366.657232  	-0.006898 
2368.586048  	-0.005679 
2370.514864  	-0.003825 
2372.443680  	-0.002338 
2374.372496  	-0.000731 
2376.301312  	0.000696 
2378.230128  	0.001891 
2380.158944  	0.002687 
2382.087760  	0.003158 
2384.016576  	0.003713 
2385.945392  	0.004120 
2387.874208  	0.004165 
2389.803024  	0.004194 
2391.731840  	0.004282 
2393.660656  	0.004380 
2395.589472  	0.004473 
2397.518288  	0.004637 
2399.447104  	0.004874 
2401.375920  	0.004802 
2403.304736  	0.004389 
2405.233552  	0.004551 
2407.162368  	0.004565 
2409.091184  	0.004384 
2411.020000  	0.004572 
2412.948816  	0.004859 
2414.877632  	0.004798 
2416.806448  	0.004768 
2418.735264  	0.004825 
2420.664080  	0.004737 
2422.592896  	0.004833 
2424.521712  	0.004680 
2426.450528  	0.004673 
2428.379344  	0.004950 
2430.308160  	0.005039 
2432.236976  	0.004921 
2434.165792  	0.004704 
2436.094608  	0.004540 
2438.023424  	0.004775 
2439.952240  	0.004972 
2441.881056  	0.004905 
2443.809872  	0.005057 
2445.738688  	0.005343 
2447.667504  	0.005439 
2449.596320  	0.005370 
2451.525136  	0.005166 
2453.453952  	0.005141 
2455.382768  	0.005294 
2457.311584  	0.005409 
2459.240400  	0.005358 
2461.169216  	0.005410 
2463.098032  	0.005478 
2465.026848  	0.005327 
2466.955664  	0.005259 
2468.884480  	0.005098 
2470.813296  	0.005052 
2472.742112  	0.005167 
2474.670928  	0.005349 
2476.599744  	0.005364 
2478.528560  	0.005363 
2480.457376  	0.005380 
2482.386192  	0.005338 
2484.315008  	0.005294 
2486.243824  	0.005260 
2488.172640  	0.005449 
2490.101456  	0.005616 
2492.030272  	0.005701 
2493.959088  	0.005492 
2495.887904  	0.005533 
2497.816720  	0.005766 
2499.745536  	0.005727 
2501.674352  	0.005694 
2503.603168  	0.005474 
2505.531984  	0.005424 
2507.460800  	0.005675 
2509.389616  	0.005832 
2511.318432  	0.005725 
2513.247248  	0.005575 
2515.176064  	0.005691 
2517.104880  	0.005551 
2519.033696  	0.005732 
2520.962512  	0.005994 
2522.891328  	0.006026 
2524.820144  	0.006034 
2526.748960  	0.006106 
2528.677776  	0.006008 
2530.606592  	0.005964 
2532.535408  	0.006243 
2534.464224  	0.006254 
2536.393040  	0.006127 
2538.321856  	0.006200 
2540.250672  	0.006531 
2542.179488  	0.006725 
2544.108304  	0.006510 
2546.037120  	0.006300 
2547.965936  	0.006515 
2549.894752  	0.006603 
2551.823568  	0.006594 
2553.752384  	0.006512 
2555.681200  	0.006542 
2557.610016  	0.006552 
2559.538832  	0.006619 
2561.467648  	0.006580 
2563.396464  	0.006446 
2565.325280  	0.006513 
2567.254096  	0.006626 
2569.182912  	0.006499 
2571.111728  	0.006443 
2573.040544  	0.006659 
2574.969360  	0.006719 
2576.898176  	0.006734 
2578.826992  	0.007062 
2580.755808  	0.007071 
2582.684624  	0.006967 
2584.613440  	0.007041 
2586.542256  	0.006895 
2588.471072  	0.006854 
2590.399888  	0.007003 
2592.328704  	0.006878 
2594.257520  	0.006978 
2596.186336  	0.007083 
2598.115152  	0.007239 
2600.043968  	0.007302 
2601.972784  	0.007232 
2603.901600  	0.007316 
2605.830416  	0.007509 
2607.759232  	0.007470 
2609.688048  	0.007441 
2611.616864  	0.007401 
2613.545680  	0.007316 
2615.474496  	0.007481 
2617.403312  	0.007615 
2619.332128  	0.007491 
2621.260944  	0.007433 
2623.189760  	0.007470 
2625.118576  	0.007579 
2627.047392  	0.007740 
2628.976208  	0.007828 
2630.905024  	0.007733 
2632.833840  	0.007887 
2634.762656  	0.007901 
2636.691472  	0.007752 
2638.620288  	0.007880 
2640.549104  	0.008050 
2642.477920  	0.008118 
2644.406736  	0.008064 
2646.335552  	0.008035 
2648.264368  	0.008148 
2650.193184  	0.008343 
2652.122000  	0.008441 
2654.050816  	0.008400 
2655.979632  	0.008221 
2657.908448  	0.008151 
2659.837264  	0.008190 
2661.766080  	0.008059 
2663.694896  	0.007952 
2665.623712  	0.007939 
2667.552528  	0.007966 
2669.481344  	0.008030 
2671.410160  	0.008101 
2673.338976  	0.008112 
2675.267792  	0.008052 
2677.196608  	0.008045 
2679.125424  	0.008115 
2681.054240  	0.008183 
2682.983056  	0.008330 
2684.911872  	0.008424 
2686.840688  	0.008354 
2688.769504  	0.008315 
2690.698320  	0.008308 
2692.627136  	0.008345 
2694.555952  	0.008381 
2696.484768  	0.008444 
2698.413584  	0.008493 
2700.342400  	0.008520 
2702.271216  	0.008533 
2704.200032  	0.008460 
2706.128848  	0.008531 
2708.057664  	0.008714 
2709.986480  	0.008834 
2711.915296  	0.008783 
2713.844112  	0.008767 
2715.772928  	0.008790 
2717.701744  	0.008915 
2719.630560  	0.008932 
2721.559376  	0.008898 
2723.488192  	0.008997 
2725.417008  	0.009141 
2727.345824  	0.009155 
2729.274640  	0.009161 
2731.203456  	0.009194 
2733.132272  	0.009233 
2735.061088  	0.009312 
2736.989904  	0.009315 
2738.918720  	0.009245 
2740.847536  	0.009207 
2742.776352  	0.009210 
2744.705168  	0.009271 
2746.633984  	0.009332 
2748.562800  	0.009342 
2750.491616  	0.009398 
2752.420432  	0.009410 
2754.349248  	0.009413 
2756.278064  	0.009517 
2758.206880  	0.009602 
2760.135696  	0.009691 
2762.064512  	0.009703 
2763.993328  	0.009664 
2765.922144  	0.009695 
2767.850960  	0.009723 
2769.779776  	0.009789 
2771.708592  	0.009724 
2773.637408  	0.009691 
2775.566224  	0.009694 
2777.495040  	0.009777 
2779.423856  	0.009999 
2781.352672  	0.010069 
2783.281488  	0.010059 
2785.210304  	0.010137 
2787.139120  	0.010135 
2789.067936  	0.010017 
2790.996752  	0.010011 
2792.925568  	0.010132 
2794.854384  	0.010192 
2796.783200  	0.010283 
2798.712016  	0.010266 
2800.640832  	0.010255 
2802.569648  	0.010259 
2804.498464  	0.010387 
2806.427280  	0.010461 
2808.356096  	0.010432 
2810.284912  	0.010371 
2812.213728  	0.010445 
2814.142544  	0.010592 
2816.071360  	0.010510 
2818.000176  	0.010422 
2819.928992  	0.010408 
2821.857808  	0.010516 
2823.786624  	0.010641 
2825.715440  	0.010700 
2827.644256  	0.010571 
2829.573072  	0.010515 
2831.501888  	0.010585 
2833.430704  	0.010585 
2835.359520  	0.010478 
2837.288336  	0.010415 
2839.217152  	0.010316 
2841.145968  	0.010244 
2843.074784  	0.010197 
2845.003600  	0.010315 
2846.932416  	0.010491 
2848.861232  	0.010612 
2850.790048  	0.010578 
2852.718864  	0.010398 
2854.647680  	0.010358 
2856.576496  	0.010389 
2858.505312  	0.010257 
2860.434128  	0.010113 
2862.362944  	0.010032 
2864.291760  	0.010028 
2866.220576  	0.010030 
2868.149392  	0.010012 
2870.078208  	0.010029 
2872.007024  	0.010117 
2873.935840  	0.010167 
2875.864656  	0.010193 
2877.793472  	0.010307 
2879.722288  	0.010447 
2881.651104  	0.010584 
2883.579920  	0.010397 
2885.508736  	0.010309 
2887.437552  	0.010370 
2889.366368  	0.010424 
2891.295184  	0.010501 
2893.224000  	0.010611 
2895.152816  	0.010629 
2897.081632  	0.010573 
2899.010448  	0.010311 
2900.939264  	0.010158 
2902.868080  	0.010411 
2904.796896  	0.010599 
2906.725712  	0.010795 
2908.654528  	0.010900 
2910.583344  	0.010889 
2912.512160  	0.011058 
2914.440976  	0.011517 
2916.369792  	0.011814 
2918.298608  	0.011851 
2920.227424  	0.011931 
2922.156240  	0.012161 
2924.085056  	0.012469 
2926.013872  	0.012768 
2927.942688  	0.012947 
2929.871504  	0.013134 
2931.800320  	0.013298 
2933.729136  	0.013456 
2935.657952  	0.013627 
2937.586768  	0.013661 
2939.515584  	0.013726 
2941.444400  	0.013884 
2943.373216  	0.013927 
2945.302032  	0.013849 
2947.230848  	0.013806 
2949.159664  	0.013854 
2951.088480  	0.013819 
2953.017296  	0.013877 
2954.946112  	0.013766 
2956.874928  	0.013454 
2958.803744  	0.013306 
2960.732560  	0.013321 
2962.661376  	0.013192 
2964.590192  	0.012995 
2966.519008  	0.012696 
2968.447824  	0.012517 
2970.376640  	0.012592 
2972.305456  	0.012508 
2974.234272  	0.012410 
2976.163088  	0.012402 
2978.091904  	0.012276 
2980.020720  	0.012217 
2981.949536  	0.012298 
2983.878352  	0.012387 
2985.807168  	0.012190 
2987.735984  	0.011969 
2989.664800  	0.012121 
2991.593616  	0.012379 
2993.522432  	0.012533 
2995.451248  	0.012715 
2997.380064  	0.012922 
2999.308880  	0.013072 
3001.237696  	0.013270 
3003.166512  	0.013471 
3005.095328  	0.013731 
3007.024144  	0.013814 
3008.952960  	0.013906 
3010.881776  	0.014217 
3012.810592  	0.014536 
3014.739408  	0.014778 
3016.668224  	0.014776 
3018.597040  	0.014796 
3020.525856  	0.015020 
3022.454672  	0.015222 
3024.383488  	0.015291 
3026.312304  	0.015441 
3028.241120  	0.015604 
3030.169936  	0.015747 
3032.098752  	0.015904 
3034.027568  	0.016044 
3035.956384  	0.016304 
3037.885200  	0.016473 
3039.814016  	0.016514 
3041.742832  	0.016527 
3043.671648  	0.016539 
3045.600464  	0.016865 
3047.529280  	0.017162 
3049.458096  	0.017157 
3051.386912  	0.016837 
3053.315728  	0.016781 
3055.244544  	0.017005 
3057.173360  	0.017236 
3059.102176  	0.017324 
3061.030992  	0.017347 
3062.959808  	0.017496 
3064.888624  	0.017777 
3066.817440  	0.018044 
3068.746256  	0.018154 
3070.675072  	0.018261 
3072.603888  	0.018290 
3074.532704  	0.018479 
3076.461520  	0.018730 
3078.390336  	0.018788 
3080.319152  	0.018859 
3082.247968  	0.019048 
3084.176784  	0.019209 
3086.105600  	0.019279 
3088.034416  	0.019451 
3089.963232  	0.019552 
3091.892048  	0.019717 
3093.820864  	0.019805 
3095.749680  	0.019841 
3097.678496  	0.019997 
3099.607312  	0.020100 
3101.536128  	0.020177 
3103.464944  	0.020397 
3105.393760  	0.020556 
3107.322576  	0.020640 
3109.251392  	0.020701 
3111.180208  	0.020835 
3113.109024  	0.021074 
3115.037840  	0.021169 
3116.966656  	0.021059 
3118.895472  	0.021203 
3120.824288  	0.021418 
3122.753104  	0.021517 
3124.681920  	0.021608 
3126.610736  	0.021717 
3128.539552  	0.021719 
3130.468368  	0.021828 
3132.397184  	0.022071 
3134.326000  	0.022263 
3136.254816  	0.022240 
3138.183632  	0.022192 
3140.112448  	0.022380 
3142.041264  	0.022548 
3143.970080  	0.022612 
3145.898896  	0.022708 
3147.827712  	0.022815 
3149.756528  	0.022755 
3151.685344  	0.022810 
3153.614160  	0.023039 
3155.542976  	0.023272 
3157.471792  	0.023478 
3159.400608  	0.023608 
3161.329424  	0.023630 
3163.258240  	0.023681 
3165.187056  	0.023821 
3167.115872  	0.023852 
3169.044688  	0.024005 
3170.973504  	0.023882 
3172.902320  	0.023939 
3174.831136  	0.024238 
3176.759952  	0.024500 
3178.688768  	0.024649 
3180.617584  	0.024849 
3182.546400  	0.024865 
3184.475216  	0.024793 
3186.404032  	0.024986 
3188.332848  	0.025052 
3190.261664  	0.025018 
3192.190480  	0.025035 
3194.119296  	0.024998 
3196.048112  	0.025014 
3197.976928  	0.025142 
3199.905744  	0.025115 
3201.834560  	0.025099 
3203.763376  	0.025176 
3205.692192  	0.025202 
3207.621008  	0.025179 
3209.549824  	0.025108 
3211.478640  	0.024887 
3213.407456  	0.024965 
3215.336272  	0.025232 
3217.265088  	0.025140 
3219.193904  	0.025017 
3221.122720  	0.025222 
3223.051536  	0.025134 
3224.980352  	0.024790 
3226.909168  	0.024622 
3228.837984  	0.024736 
3230.766800  	0.024803 
3232.695616  	0.024611 
3234.624432  	0.024371 
3236.553248  	0.024443 
3238.482064  	0.024692 
3240.410880  	0.024721 
3242.339696  	0.024495 
3244.268512  	0.024410 
3246.197328  	0.024521 
3248.126144  	0.024499 
3250.054960  	0.024474 
3251.983776  	0.024429 
3253.912592  	0.024573 
3255.841408  	0.024718 
3257.770224  	0.024711 
3259.699040  	0.024857 
3261.627856  	0.024803 
3263.556672  	0.024803 
3265.485488  	0.025028 
3267.414304  	0.025127 
3269.343120  	0.025145 
3271.271936  	0.024962 
3273.200752  	0.025018 
3275.129568  	0.025173 
3277.058384  	0.025269 
3278.987200  	0.025432 
3280.916016  	0.025330 
3282.844832  	0.025249 
3284.773648  	0.025361 
3286.702464  	0.025490 
3288.631280  	0.025510 
3290.560096  	0.025442 
3292.488912  	0.025448 
3294.417728  	0.025647 
3296.346544  	0.025884 
3298.275360  	0.025914 
3300.204176  	0.025945 
3302.132992  	0.026220 
3304.061808  	0.026605 
3305.990624  	0.026646 
3307.919440  	0.026710 
3309.848256  	0.026850 
3311.777072  	0.026839 
3313.705888  	0.026865 
3315.634704  	0.026967 
3317.563520  	0.027151 
3319.492336  	0.027417 
3321.421152  	0.027510 
3323.349968  	0.027362 
3325.278784  	0.027372 
3327.207600  	0.027492 
3329.136416  	0.027486 
3331.065232  	0.027592 
3332.994048  	0.027719 
3334.922864  	0.027588 
3336.851680  	0.027523 
3338.780496  	0.027655 
3340.709312  	0.027796 
3342.638128  	0.027969 
3344.566944  	0.028128 
3346.495760  	0.028232 
3348.424576  	0.027973 
3350.353392  	0.027739 
3352.282208  	0.027727 
3354.211024  	0.027738 
3356.139840  	0.027761 
3358.068656  	0.027700 
3359.997472  	0.027624 
3361.926288  	0.027570 
3363.855104  	0.027417 
3365.783920  	0.027273 
3367.712736  	0.026997 
3369.641552  	0.026944 
3371.570368  	0.027063 
3373.499184  	0.027037 
3375.428000  	0.026892 
3377.356816  	0.026884 
3379.285632  	0.026726 
3381.214448  	0.026436 
3383.143264  	0.026284 
3385.072080  	0.026185 
3387.000896  	0.025912 
3388.929712  	0.025725 
3390.858528  	0.025601 
3392.787344  	0.025629 
3394.716160  	0.025754 
3396.644976  	0.025948 
3398.573792  	0.025936 
3400.502608  	0.025702 
3402.431424  	0.025615 
3404.360240  	0.025528 
3406.289056  	0.025182 
3408.217872  	0.024786 
3410.146688  	0.024687 
3412.075504  	0.024694 
3414.004320  	0.024748 
3415.933136  	0.024695 
3417.861952  	0.024418 
3419.790768  	0.024420 
3421.719584  	0.024623 
3423.648400  	0.024361 
3425.577216  	0.024121 
3427.506032  	0.024093 
3429.434848  	0.023893 
3431.363664  	0.023763 
3433.292480  	0.023738 
3435.221296  	0.023489 
3437.150112  	0.023316 
3439.078928  	0.023217 
3441.007744  	0.023095 
3442.936560  	0.023042 
3444.865376  	0.022656 
3446.794192  	0.022582 
3448.723008  	0.022701 
3450.651824  	0.022449 
3452.580640  	0.022251 
3454.509456  	0.022105 
3456.438272  	0.021988 
3458.367088  	0.021836 
3460.295904  	0.021638 
3462.224720  	0.021518 
3464.153536  	0.021289 
3466.082352  	0.021152 
3468.011168  	0.021018 
3469.939984  	0.020857 
3471.868800  	0.020548 
3473.797616  	0.020302 
3475.726432  	0.020223 
3477.655248  	0.019921 
3479.584064  	0.019687 
3481.512880  	0.019605 
3483.441696  	0.019278 
3485.370512  	0.019038 
3487.299328  	0.018972 
3489.228144  	0.018921 
3491.156960  	0.018654 
3493.085776  	0.018447 
3495.014592  	0.018355 
3496.943408  	0.018288 
3498.872224  	0.018112 
3500.801040  	0.017795 
3502.729856  	0.017785 
3504.658672  	0.017763 
3506.587488  	0.017225 
3508.516304  	0.016719 
3510.445120  	0.016825 
3512.373936  	0.016835 
3514.302752  	0.016573 
3516.231568  	0.016440 
3518.160384  	0.016449 
3520.089200  	0.016393 
3522.018016  	0.016240 
3523.946832  	0.015956 
3525.875648  	0.015422 
3527.804464  	0.015388 
3529.733280  	0.015437 
3531.662096  	0.015320 
3533.590912  	0.015075 
3535.519728  	0.015060 
3537.448544  	0.015004 
3539.377360  	0.014689 
3541.306176  	0.014429 
3543.234992  	0.014309 
3545.163808  	0.014287 
3547.092624  	0.014417 
3549.021440  	0.014141 
3550.950256  	0.013761 
3552.879072  	0.013744 
3554.807888  	0.013770 
3556.736704  	0.013622 
3558.665520  	0.013266 
3560.594336  	0.012837 
3562.523152  	0.012577 
3564.451968  	0.012274 
3566.380784  	0.012583 
3568.309600  	0.013145 
3570.238416  	0.012528 
3572.167232  	0.011860 
3574.096048  	0.011769 
3576.024864  	0.011798 
3577.953680  	0.011649 
3579.882496  	0.011467 
3581.811312  	0.011303 
3583.740128  	0.010860 
3585.668944  	0.010470 
3587.597760  	0.011292 
3589.526576  	0.011408 
3591.455392  	0.010388 
3593.384208  	0.010147 
3595.313024  	0.010297 
3597.241840  	0.010238 
3599.170656  	0.009812 
3601.099472  	0.009767 
3603.028288  	0.009564 
3604.957104  	0.008899 
3606.885920  	0.008694 
3608.814736  	0.009035 
3610.743552  	0.008864 
3612.672368  	0.008713 
3614.601184  	0.008500 
3616.530000  	0.007713 
3618.458816  	0.007676 
3620.387632  	0.008276 
3622.316448  	0.007474 
3624.245264  	0.006790 
3626.174080  	0.005991 
3628.102896  	0.006232 
3630.031712  	0.007811 
3631.960528  	0.006389 
3633.889344  	0.006218 
3635.818160  	0.006306 
3637.746976  	0.006156 
3639.675792  	0.005868 
3641.604608  	0.005630 
3643.533424  	0.005128 
3645.462240  	0.004047 
3647.391056  	0.003998 
3649.319872  	0.005331 
3651.248688  	0.006204 
3653.177504  	0.004786 
3655.106320  	0.003905 
3657.035136  	0.004394 
3658.963952  	0.004180 
3660.892768  	0.003816 
3662.821584  	0.003752 
3664.750400  	0.003492 
3666.679216  	0.002626 
3668.608032  	0.002383 
3670.536848  	0.003969 
3672.465664  	0.003045 
3674.394480  	0.002360 
3676.323296  	0.004695 
3678.252112  	0.004101 
3680.180928  	0.003722 
3682.109744  	0.003022 
3684.038560  	0.002499 
3685.967376  	0.002017 
3687.896192  	0.002760 
3689.825008  	0.003801 
3691.753824  	0.003532 
3693.682640  	0.002762 
3695.611456  	0.002413 
3697.540272  	0.002640 
3699.469088  	0.002350 
3701.397904  	0.002820 
3703.326720  	0.003134 
3705.255536  	0.002500 
3707.184352  	0.001986 
3709.113168  	0.001926 
3711.041984  	0.003004 
3712.970800  	0.004304 
3714.899616  	0.003694 
3716.828432  	0.002954 
3718.757248  	0.002823 
3720.686064  	0.002667 
3722.614880  	0.002839 
3724.543696  	0.002873 
3726.472512  	0.003392 
3728.401328  	0.003076 
3730.330144  	0.001804 
3732.258960  	0.001919 
3734.187776  	0.002202 
3736.116592  	0.003555 
3738.045408  	0.003670 
3739.974224  	0.002899 
3741.903040  	0.001705 
3743.831856  	0.002676 
3745.760672  	0.004662 
3747.689488  	0.002751 
3749.618304  	0.003016 
3751.547120  	0.004461 
3753.475936  	0.004846 
3755.404752  	0.003668 
3757.333568  	0.003227 
3759.262384  	0.003434 
3761.191200  	0.003858 
3763.120016  	0.003146 
3765.048832  	0.003096 
3766.977648  	0.003022 
3768.906464  	0.003255 
3770.835280  	0.004300 
3772.764096  	0.003853 
3774.692912  	0.003048 
3776.621728  	0.002649 
3778.550544  	0.003216 
3780.479360  	0.004058 
3782.408176  	0.003447 
3784.336992  	0.003429 
3786.265808  	0.003595 
3788.194624  	0.003469 
3790.123440  	0.003476 
3792.052256  	0.003453 
3793.981072  	0.003220 
3795.909888  	0.003430 
3797.838704  	0.003131 
3799.767520  	0.002102 
3801.696336  	0.003681 
3803.625152  	0.003866 
3805.553968  	0.002910 
3807.482784  	0.004047 
3809.411600  	0.004017 
3811.340416  	0.003443 
3813.269232  	0.002526 
3815.198048  	0.002743 
3817.126864  	0.003697 
3819.055680  	0.002685 
3820.984496  	0.003839 
3822.913312  	0.004403 
3824.842128  	0.003268 
3826.770944  	0.003482 
3828.699760  	0.003008 
3830.628576  	0.002647 
3832.557392  	0.002869 
3834.486208  	0.002655 
3836.415024  	0.002775 
3838.343840  	0.003739 
3840.272656  	0.003893 
3842.201472  	0.003713 
3844.130288  	0.004021 
3846.059104  	0.003754 
3847.987920  	0.003025 
3849.916736  	0.002391 
3851.845552  	0.002276 
3853.774368  	0.004937 
3855.703184  	0.004857 
3857.632000  	0.003541 
3859.560816  	0.002759 
3861.489632  	0.002711 
3863.418448  	0.003143 
3865.347264  	0.003716 
3867.276080  	0.002797 
3869.204896  	0.003019 
3871.133712  	0.004160 
3873.062528  	0.003547 
3874.991344  	0.003921 
3876.920160  	0.003266 
3878.848976  	0.003016 
3880.777792  	0.003983 
3882.706608  	0.003392 
3884.635424  	0.002897 
3886.564240  	0.004117 
3888.493056  	0.003222 
3890.421872  	0.003144 
3892.350688  	0.003948 
3894.279504  	0.003489 
3896.208320  	0.002655 
3898.137136  	0.002493 
3900.065952  	0.003252 
3901.994768  	0.003587 
3903.923584  	0.004044 
3905.852400  	0.004270 
3907.781216  	0.003729 
3909.710032  	0.003375 
3911.638848  	0.003408 
3913.567664  	0.003230 
3915.496480  	0.003099 
3917.425296  	0.003423 
3919.354112  	0.003642 
3921.282928  	0.003594 
3923.211744  	0.003269 
3925.140560  	0.003512 
3927.069376  	0.003441 
3928.998192  	0.003231 
3930.927008  	0.003422 
3932.855824  	0.003766 
3934.784640  	0.003689 
3936.713456  	0.003533 
3938.642272  	0.003412 
3940.571088  	0.003222 
3942.499904  	0.003462 
3944.428720  	0.003659 
3946.357536  	0.003386 
3948.286352  	0.003461 
3950.215168  	0.003644 
3952.143984  	0.003554 
3954.072800  	0.003470 
3956.001616  	0.003626 
3957.930432  	0.003628 
3959.859248  	0.003675 
3961.788064  	0.003614 
3963.716880  	0.003429 
3965.645696  	0.003169 
3967.574512  	0.003287 
3969.503328  	0.003395 
3971.432144  	0.003516 
3973.360960  	0.003674 
3975.289776  	0.003686 
3977.218592  	0.003630 
3979.147408  	0.003580 
3981.076224  	0.003671 
3983.005040  	0.003723 
3984.933856  	0.003543 
3986.862672  	0.003384 
3988.791488  	0.003314 
3990.720304  	0.003441 
3992.649120  	0.003450 
3994.577936  	0.003454 
3996.506752  	0.003606 
3998.435568  	0.003679 
4000.364384  	0.003615 