##TITLE=No Description
##DATA TYPE=INFRARED SPECTRUM
##XUNITS=1/CM
##YUNITS=Abs
399.264912  	0.260102 
401.193728  	0.245282 
403.122544  	0.238051 
405.051360  	0.239184 
406.980176  	0.243363 
408.908992  	0.237604 
410.837808  	0.234484 
412.766624  	0.233182 
414.695440  	0.232271 
416.624256  	0.228684 
418.553072  	0.232329 
420.481888  	0.227086 
422.410704  	0.226288 
424.339520  	0.228876 
426.268336  	0.229747 
428.197152  	0.225080 
430.125968  	0.222751 
432.054784  	0.221160 
433.983600  	0.220644 
435.912416  	0.215479 
437.841232  	0.213938 
439.770048  	0.213590 
441.698864  	0.214164 
443.627680  	0.213501 
445.556496  	0.212747 
447.485312  	0.210108 
449.414128  	0.207620 
451.342944  	0.205272 
453.271760  	0.209866 
455.200576  	0.213015 
457.129392  	0.212197 
459.058208  	0.208801 
460.987024  	0.207003 
462.915840  	0.208127 
464.844656  	0.212910 
466.773472  	0.213808 
468.702288  	0.212800 
470.631104  	0.212502 
472.559920  	0.213835 
474.488736  	0.213847 
476.417552  	0.212102 
478.346368  	0.209533 
480.275184  	0.209710 
482.204000  	0.209600 
484.132816  	0.209503 
486.061632  	0.209175 
487.990448  	0.214403 
489.919264  	0.216280 
491.848080  	0.215018 
493.776896  	0.213164 
495.705712  	0.215203 
497.634528  	0.215244 
499.563344  	0.214855 
501.492160  	0.216977 
503.420976  	0.217721 
505.349792  	0.216081 
507.278608  	0.217812 
509.207424  	0.219676 
511.136240  	0.220474 
513.065056  	0.220396 
514.993872  	0.221060 
516.922688  	0.218476 
518.851504  	0.219883 
520.780320  	0.222218 
522.709136  	0.224336 
524.637952  	0.225618 
526.566768  	0.226679 
528.495584  	0.226114 
530.424400  	0.224744 
532.353216  	0.224754 
534.282032  	0.226911 
536.210848  	0.227114 
538.139664  	0.226386 
540.068480  	0.224622 
541.997296  	0.223424 
543.926112  	0.223089 
545.854928  	0.223795 
547.783744  	0.223522 
549.712560  	0.223716 
551.641376  	0.222909 
553.570192  	0.221957 
555.499008  	0.221821 
557.427824  	0.222789 
559.356640  	0.221939 
561.285456  	0.220781 
563.214272  	0.220070 
565.143088  	0.219618 
567.071904  	0.218639 
569.000720  	0.218185 
570.929536  	0.217465 
572.858352  	0.217290 
574.787168  	0.216305 
576.715984  	0.215565 
578.644800  	0.214470 
580.573616  	0.214139 
582.502432  	0.213325 
584.431248  	0.213408 
586.360064  	0.213017 
588.288880  	0.212260 
590.217696  	0.211950 
592.146512  	0.211516 
594.075328  	0.210276 
596.004144  	0.210179 
597.932960  	0.209507 
599.861776  	0.209407 
601.790592  	0.208510 
603.719408  	0.208060 
605.648224  	0.208463 
607.577040  	0.208664 
609.505856  	0.208202 
611.434672  	0.208123 
613.363488  	0.207565 
615.292304  	0.207188 
617.221120  	0.206061 
619.149936  	0.206188 
621.078752  	0.205878 
623.007568  	0.205505 
624.936384  	0.204754 
626.865200  	0.204056 
628.794016  	0.203110 
630.722832  	0.203272 
632.651648  	0.203410 
634.580464  	0.203183 
636.509280  	0.202504 
638.438096  	0.201845 
640.366912  	0.201643 
642.295728  	0.201535 
644.224544  	0.200753 
646.153360  	0.200223 
648.082176  	0.198921 
650.010992  	0.197895 
651.939808  	0.196492 
653.868624  	0.195236 
655.797440  	0.193970 
657.726256  	0.193367 
659.655072  	0.192125 
661.583888  	0.190760 
663.512704  	0.189292 
665.441520  	0.188600 
667.370336  	0.186730 
669.299152  	0.184036 
671.227968  	0.183289 
673.156784  	0.182721 
675.085600  	0.181813 
677.014416  	0.180957 
678.943232  	0.179669 
680.872048  	0.178485 
682.800864  	0.177899 
684.729680  	0.177763 
686.658496  	0.176781 
688.587312  	0.176235 
690.516128  	0.175530 
692.444944  	0.174400 
694.373760  	0.173087 
696.302576  	0.172440 
698.231392  	0.171412 
700.160208  	0.170200 
702.089024  	0.168892 
704.017840  	0.167783 
705.946656  	0.166779 
707.875472  	0.165838 
709.804288  	0.164478 
711.733104  	0.163398 
713.661920  	0.162504 
715.590736  	0.161363 
717.519552  	0.160376 
719.448368  	0.159901 
721.377184  	0.159034 
723.306000  	0.158647 
725.234816  	0.158397 
727.163632  	0.157937 
729.092448  	0.156882 
731.021264  	0.155748 
732.950080  	0.154764 
734.878896  	0.153626 
736.807712  	0.152329 
738.736528  	0.151497 
740.665344  	0.150569 
742.594160  	0.149688 
744.522976  	0.148636 
746.451792  	0.147884 
748.380608  	0.147035 
750.309424  	0.146048 
752.238240  	0.145061 
754.167056  	0.144758 
756.095872  	0.144306 
758.024688  	0.143609 
759.953504  	0.142489 
761.882320  	0.141648 
763.811136  	0.140920 
765.739952  	0.140325 
767.668768  	0.139430 
769.597584  	0.138474 
771.526400  	0.137942 
773.455216  	0.137503 
775.384032  	0.137083 
777.312848  	0.137098 
779.241664  	0.137233 
781.170480  	0.137004 
783.099296  	0.135794 
785.028112  	0.134006 
786.956928  	0.131866 
788.885744  	0.129923 
790.814560  	0.128254 
792.743376  	0.126865 
794.672192  	0.125687 
796.601008  	0.124676 
798.529824  	0.123377 
800.458640  	0.122013 
802.387456  	0.120236 
804.316272  	0.119086 
806.245088  	0.117938 
808.173904  	0.116633 
810.102720  	0.115637 
812.031536  	0.114684 
813.960352  	0.113722 
815.889168  	0.113011 
817.817984  	0.112043 
819.746800  	0.110725 
821.675616  	0.109627 
823.604432  	0.109105 
825.533248  	0.108482 
827.462064  	0.107396 
829.390880  	0.106112 
831.319696  	0.104882 
833.248512  	0.103748 
835.177328  	0.102985 
837.106144  	0.101717 
839.034960  	0.100334 
840.963776  	0.098961 
842.892592  	0.097668 
844.821408  	0.096329 
846.750224  	0.095089 
848.679040  	0.093968 
850.607856  	0.092947 
852.536672  	0.092008 
854.465488  	0.091179 
856.394304  	0.090311 
858.323120  	0.089644 
860.251936  	0.088559 
862.180752  	0.087425 
864.109568  	0.086420 
866.038384  	0.085703 
867.967200  	0.085043 
869.896016  	0.084314 
871.824832  	0.083490 
873.753648  	0.083236 
875.682464  	0.083039 
877.611280  	0.082492 
879.540096  	0.081989 
881.468912  	0.081736 
883.397728  	0.081464 
885.326544  	0.080992 
887.255360  	0.080426 
889.184176  	0.079867 
891.112992  	0.079345 
893.041808  	0.078838 
894.970624  	0.077985 
896.899440  	0.076925 
898.828256  	0.075974 
900.757072  	0.075091 
902.685888  	0.074297 
904.614704  	0.073558 
906.543520  	0.073188 
908.472336  	0.073052 
910.401152  	0.073018 
912.329968  	0.073162 
914.258784  	0.073545 
916.187600  	0.073974 
918.116416  	0.073907 
920.045232  	0.073728 
921.974048  	0.073268 
923.902864  	0.072651 
925.831680  	0.072092 
927.760496  	0.071594 
929.689312  	0.071256 
931.618128  	0.071016 
933.546944  	0.070576 
935.475760  	0.070187 
937.404576  	0.069710 
939.333392  	0.069317 
941.262208  	0.069113 
943.191024  	0.069129 
945.119840  	0.069341 
947.048656  	0.069561 
948.977472  	0.069998 
950.906288  	0.070676 
952.835104  	0.071426 
954.763920  	0.072219 
956.692736  	0.072789 
958.621552  	0.073337 
960.550368  	0.073415 
962.479184  	0.073128 
964.408000  	0.072248 
966.336816  	0.070962 
968.265632  	0.069126 
970.194448  	0.066770 
972.123264  	0.064186 
974.052080  	0.061350 
975.980896  	0.058450 
977.909712  	0.055647 
979.838528  	0.053308 
981.767344  	0.051227 
983.696160  	0.049565 
985.624976  	0.048384 
987.553792  	0.047543 
989.482608  	0.047088 
991.411424  	0.047091 
993.340240  	0.047355 
995.269056  	0.048029 
997.197872  	0.049033 
999.126688  	0.050048 
1001.055504  	0.051108 
1002.984320  	0.052103 
1004.913136  	0.053087 
1006.841952  	0.054083 
1008.770768  	0.055029 
1010.699584  	0.055763 
1012.628400  	0.056247 
1014.557216  	0.056589 
1016.486032  	0.056785 
1018.414848  	0.056806 
1020.343664  	0.056600 
1022.272480  	0.056388 
1024.201296  	0.056263 
1026.130112  	0.056031 
1028.058928  	0.055950 
1029.987744  	0.055728 
1031.916560  	0.055579 
1033.845376  	0.055938 
1035.774192  	0.056572 
1037.703008  	0.057301 
1039.631824  	0.058188 
1041.560640  	0.059236 
1043.489456  	0.060741 
1045.418272  	0.062752 
1047.347088  	0.065387 
1049.275904  	0.068257 
1051.204720  	0.071071 
1053.133536  	0.073842 
1055.062352  	0.076462 
1056.991168  	0.078650 
1058.919984  	0.080192 
1060.848800  	0.080959 
1062.777616  	0.081474 
1064.706432  	0.081494 
1066.635248  	0.081195 
1068.564064  	0.080277 
1070.492880  	0.078984 
1072.421696  	0.077887 
1074.350512  	0.076871 
1076.279328  	0.075711 
1078.208144  	0.074678 
1080.136960  	0.074209 
1082.065776  	0.073865 
1083.994592  	0.073197 
1085.923408  	0.072765 
1087.852224  	0.071914 
1089.781040  	0.071014 
1091.709856  	0.070114 
1093.638672  	0.068775 
1095.567488  	0.066783 
1097.496304  	0.064580 
1099.425120  	0.062453 
1101.353936  	0.060256 
1103.282752  	0.057752 
1105.211568  	0.055274 
1107.140384  	0.053005 
1109.069200  	0.050976 
1110.998016  	0.048450 
1112.926832  	0.046030 
1114.855648  	0.043920 
1116.784464  	0.041904 
1118.713280  	0.039932 
1120.642096  	0.037812 
1122.570912  	0.035887 
1124.499728  	0.034198 
1126.428544  	0.032423 
1128.357360  	0.030814 
1130.286176  	0.029341 
1132.214992  	0.028157 
1134.143808  	0.026943 
1136.072624  	0.025660 
1138.001440  	0.024707 
1139.930256  	0.023744 
1141.859072  	0.022557 
1143.787888  	0.021604 
1145.716704  	0.020886 
1147.645520  	0.020192 
1149.574336  	0.019581 
1151.503152  	0.019085 
1153.431968  	0.018883 
1155.360784  	0.018680 
1157.289600  	0.018483 
1159.218416  	0.018371 
1161.147232  	0.018567 
1163.076048  	0.018626 
1165.004864  	0.018753 
1166.933680  	0.019087 
1168.862496  	0.019433 
1170.791312  	0.019718 
1172.720128  	0.020043 
1174.648944  	0.020505 
1176.577760  	0.020969 
1178.506576  	0.021627 
1180.435392  	0.022063 
1182.364208  	0.022578 
1184.293024  	0.023234 
1186.221840  	0.023815 
1188.150656  	0.024364 
1190.079472  	0.025078 
1192.008288  	0.026112 
1193.937104  	0.027097 
1195.865920  	0.028341 
1197.794736  	0.029769 
1199.723552  	0.031369 
1201.652368  	0.032883 
1203.581184  	0.034444 
1205.510000  	0.036183 
1207.438816  	0.037983 
1209.367632  	0.039735 
1211.296448  	0.041110 
1213.225264  	0.042494 
1215.154080  	0.043854 
1217.082896  	0.045125 
1219.011712  	0.046233 
1220.940528  	0.047278 
1222.869344  	0.048037 
1224.798160  	0.048617 
1226.726976  	0.049074 
1228.655792  	0.049513 
1230.584608  	0.049783 
1232.513424  	0.049911 
1234.442240  	0.049773 
1236.371056  	0.049243 
1238.299872  	0.048589 
1240.228688  	0.047869 
1242.157504  	0.046658 
1244.086320  	0.045354 
1246.015136  	0.044162 
1247.943952  	0.042653 
1249.872768  	0.040883 
1251.801584  	0.039254 
1253.730400  	0.037631 
1255.659216  	0.035952 
1257.588032  	0.034300 
1259.516848  	0.032752 
1261.445664  	0.031315 
1263.374480  	0.029968 
1265.303296  	0.028765 
1267.232112  	0.027756 
1269.160928  	0.026819 
1271.089744  	0.026228 
1273.018560  	0.025948 
1274.947376  	0.025806 
1276.876192  	0.025726 
1278.805008  	0.025540 
1280.733824  	0.025039 
1282.662640  	0.024236 
1284.591456  	0.023386 
1286.520272  	0.022431 
1288.449088  	0.021618 
1290.377904  	0.021127 
1292.306720  	0.020565 
1294.235536  	0.019857 
1296.164352  	0.019032 
1298.093168  	0.018054 
1300.021984  	0.017139 
1301.950800  	0.016303 
1303.879616  	0.015400 
1305.808432  	0.014690 
1307.737248  	0.014169 
1309.666064  	0.013768 
1311.594880  	0.013487 
1313.523696  	0.013224 
1315.452512  	0.013086 
1317.381328  	0.013155 
1319.310144  	0.013264 
1321.238960  	0.013324 
1323.167776  	0.013608 
1325.096592  	0.013735 
1327.025408  	0.013733 
1328.954224  	0.013713 
1330.883040  	0.013565 
1332.811856  	0.013255 
1334.740672  	0.012808 
1336.669488  	0.012622 
1338.598304  	0.012576 
1340.527120  	0.012389 
1342.455936  	0.012222 
1344.384752  	0.012220 
1346.313568  	0.012334 
1348.242384  	0.012640 
1350.171200  	0.013021 
1352.100016  	0.013368 
1354.028832  	0.013848 
1355.957648  	0.014538 
1357.886464  	0.015144 
1359.815280  	0.015557 
1361.744096  	0.016003 
1363.672912  	0.016497 
1365.601728  	0.016777 
1367.530544  	0.016918 
1369.459360  	0.017022 
1371.388176  	0.016844 
1373.316992  	0.016662 
1375.245808  	0.016362 
1377.174624  	0.015809 
1379.103440  	0.015293 
1381.032256  	0.014883 
1382.961072  	0.014527 
1384.889888  	0.014177 
1386.818704  	0.013945 
1388.747520  	0.013678 
1390.676336  	0.013266 
1392.605152  	0.012996 
1394.533968  	0.013010 
1396.462784  	0.013044 
1398.391600  	0.013114 
1400.320416  	0.013339 
1402.249232  	0.013367 
1404.178048  	0.013827 
1406.106864  	0.014320 
1408.035680  	0.014553 
1409.964496  	0.014853 
1411.893312  	0.015391 
1413.822128  	0.015804 
1415.750944  	0.016110 
1417.679760  	0.016311 
1419.608576  	0.016489 
1421.537392  	0.016139 
1423.466208  	0.015773 
1425.395024  	0.015412 
1427.323840  	0.014889 
1429.252656  	0.014564 
1431.181472  	0.014267 
1433.110288  	0.014011 
1435.039104  	0.013913 
1436.967920  	0.014233 
1438.896736  	0.014378 
1440.825552  	0.014319 
1442.754368  	0.014252 
1444.683184  	0.014161 
1446.612000  	0.014243 
1448.540816  	0.014446 
1450.469632  	0.014520 
1452.398448  	0.014606 
1454.327264  	0.014619 
1456.256080  	0.014884 
1458.184896  	0.015440 
1460.113712  	0.015204 
1462.042528  	0.014982 
1463.971344  	0.015180 
1465.900160  	0.015790 
1467.828976  	0.016196 
1469.757792  	0.016771 
1471.686608  	0.017782 
1473.615424  	0.019358 
1475.544240  	0.020061 
1477.473056  	0.020577 
1479.401872  	0.020807 
1481.330688  	0.021019 
1483.259504  	0.020998 
1485.188320  	0.020927 
1487.117136  	0.020700 
1489.045952  	0.020357 
1490.974768  	0.019507 
1492.903584  	0.018550 
1494.832400  	0.017628 
1496.761216  	0.016824 
1498.690032  	0.015949 
1500.618848  	0.015177 
1502.547664  	0.014418 
1504.476480  	0.013729 
1506.405296  	0.013711 
1508.334112  	0.013745 
1510.262928  	0.012970 
1512.191744  	0.012460 
1514.120560  	0.012081 
1516.049376  	0.012186 
1517.978192  	0.012389 
1519.907008  	0.012307 
1521.835824  	0.013238 
1523.764640  	0.013950 
1525.693456  	0.014436 
1527.622272  	0.014888 
1529.551088  	0.015045 
1531.479904  	0.015154 
1533.408720  	0.015339 
1535.337536  	0.014996 
1537.266352  	0.014215 
1539.195168  	0.013712 
1541.123984  	0.013412 
1543.052800  	0.012892 
1544.981616  	0.012324 
1546.910432  	0.011966 
1548.839248  	0.011755 
1550.768064  	0.011802 
1552.696880  	0.011682 
1554.625696  	0.011915 
1556.554512  	0.011782 
1558.483328  	0.012628 
1560.412144  	0.013853 
1562.340960  	0.013818 
1564.269776  	0.014286 
1566.198592  	0.015248 
1568.127408  	0.015922 
1570.056224  	0.017329 
1571.985040  	0.018180 
1573.913856  	0.018595 
1575.842672  	0.019339 
1577.771488  	0.020053 
1579.700304  	0.019840 
1581.629120  	0.019788 
1583.557936  	0.019772 
1585.486752  	0.020080 
1587.415568  	0.020692 
1589.344384  	0.021717 
1591.273200  	0.022834 
1593.202016  	0.024295 
1595.130832  	0.025713 
1597.059648  	0.026971 
1598.988464  	0.027947 
1600.917280  	0.028741 
1602.846096  	0.029246 
1604.774912  	0.029657 
1606.703728  	0.029654 
1608.632544  	0.029525 
1610.561360  	0.029249 
1612.490176  	0.029118 
1614.418992  	0.028940 
1616.347808  	0.029497 
1618.276624  	0.030497 
1620.205440  	0.031149 
1622.134256  	0.031955 
1624.063072  	0.034019 
1625.991888  	0.035694 
1627.920704  	0.037734 
1629.849520  	0.039863 
1631.778336  	0.041675 
1633.707152  	0.043349 
1635.635968  	0.046333 
1637.564784  	0.048512 
1639.493600  	0.049645 
1641.422416  	0.051040 
1643.351232  	0.052139 
1645.280048  	0.052943 
1647.208864  	0.054527 
1649.137680  	0.054844 
1651.066496  	0.054366 
1652.995312  	0.055002 
1654.924128  	0.055576 
1656.852944  	0.054647 
1658.781760  	0.054309 
1660.710576  	0.054000 
1662.639392  	0.053902 
1664.568208  	0.053553 
1666.497024  	0.052988 
1668.425840  	0.052662 
1670.354656  	0.052665 
1672.283472  	0.052401 
1674.212288  	0.052444 
1676.141104  	0.052911 
1678.069920  	0.052897 
1679.998736  	0.053171 
1681.927552  	0.053378 
1683.856368  	0.054011 
1685.785184  	0.055178 
1687.714000  	0.054965 
1689.642816  	0.054887 
1691.571632  	0.054416 
1693.500448  	0.053755 
1695.429264  	0.053373 
1697.358080  	0.052896 
1699.286896  	0.051499 
1701.215712  	0.050495 
1703.144528  	0.049173 
1705.073344  	0.047843 
1707.002160  	0.046240 
1708.930976  	0.044332 
1710.859792  	0.042473 
1712.788608  	0.040597 
1714.717424  	0.038463 
1716.646240  	0.036094 
1718.575056  	0.033718 
1720.503872  	0.031371 
1722.432688  	0.029349 
1724.361504  	0.027050 
1726.290320  	0.024807 
1728.219136  	0.022654 
1730.147952  	0.020763 
1732.076768  	0.018965 
1734.005584  	0.017339 
1735.934400  	0.015505 
1737.863216  	0.014043 
1739.792032  	0.012597 
1741.720848  	0.011609 
1743.649664  	0.010797 
1745.578480  	0.009902 
1747.507296  	0.009076 
1749.436112  	0.008489 
1751.364928  	0.007999 
1753.293744  	0.007476 
1755.222560  	0.006855 
1757.151376  	0.006756 
1759.080192  	0.006423 
1761.009008  	0.006258 
1762.937824  	0.006063 
1764.866640  	0.005837 
1766.795456  	0.005666 
1768.724272  	0.005671 
1770.653088  	0.005417 
1772.581904  	0.005581 
1774.510720  	0.005265 
1776.439536  	0.005065 
1778.368352  	0.004979 
1780.297168  	0.005045 
1782.225984  	0.004884 
1784.154800  	0.004893 
1786.083616  	0.004874 
1788.012432  	0.004613 
1789.941248  	0.004388 
1791.870064  	0.004554 
1793.798880  	0.004598 
1795.727696  	0.004424 
1797.656512  	0.003948 
1799.585328  	0.003849 
1801.514144  	0.004233 
1803.442960  	0.004301 
1805.371776  	0.004009 
1807.300592  	0.003991 
1809.229408  	0.003901 
1811.158224  	0.003942 
1813.087040  	0.004067 
1815.015856  	0.003735 
1816.944672  	0.003410 
1818.873488  	0.003640 
1820.802304  	0.003892 
1822.731120  	0.004002 
1824.659936  	0.004061 
1826.588752  	0.004241 
1828.517568  	0.004152 
1830.446384  	0.004225 
1832.375200  	0.004003 
1834.304016  	0.003908 
1836.232832  	0.003816 
1838.161648  	0.003875 
1840.090464  	0.003570 
1842.019280  	0.003456 
1843.948096  	0.003550 
1845.876912  	0.003751 
1847.805728  	0.003504 
1849.734544  	0.003440 
1851.663360  	0.003105 
1853.592176  	0.003289 
1855.520992  	0.003467 
1857.449808  	0.003621 
1859.378624  	0.003484 
1861.307440  	0.003505 
1863.236256  	0.003667 
1865.165072  	0.003553 
1867.093888  	0.003125 
1869.022704  	0.003089 
1870.951520  	0.003406 
1872.880336  	0.003583 
1874.809152  	0.003627 
1876.737968  	0.003384 
1878.666784  	0.003366 
1880.595600  	0.003618 
1882.524416  	0.003244 
1884.453232  	0.003185 
1886.382048  	0.003295 
1888.310864  	0.003293 
1890.239680  	0.003117 
1892.168496  	0.002873 
1894.097312  	0.002839 
1896.026128  	0.003104 
1897.954944  	0.002798 
1899.883760  	0.003007 
1901.812576  	0.003237 
1903.741392  	0.003225 
1905.670208  	0.003360 
1907.599024  	0.003584 
1909.527840  	0.003434 
1911.456656  	0.003113 
1913.385472  	0.003231 
1915.314288  	0.003211 
1917.243104  	0.003297 
1919.171920  	0.003398 
1921.100736  	0.003033 
1923.029552  	0.002998 
1924.958368  	0.003258 
1926.887184  	0.003312 
1928.816000  	0.003213 
1930.744816  	0.003688 
1932.673632  	0.004026 
1934.602448  	0.003767 
1936.531264  	0.003212 
1938.460080  	0.003210 
1940.388896  	0.002702 
1942.317712  	0.002435 
1944.246528  	0.002392 
1946.175344  	0.002173 
1948.104160  	0.002724 
1950.032976  	0.003790 
1951.961792  	0.003314 
1953.890608  	0.003261 
1955.819424  	0.003204 
1957.748240  	0.003097 
1959.677056  	0.002777 
1961.605872  	0.002447 
1963.534688  	0.002349 
1965.463504  	0.002447 
1967.392320  	0.002837 
1969.321136  	0.003049 
1971.249952  	0.003101 
1973.178768  	0.002305 
1975.107584  	0.002510 
1977.036400  	0.004390 
1978.965216  	0.005544 
1980.894032  	0.005340 
1982.822848  	0.004162 
1984.751664  	0.003144 
1986.680480  	0.003015 
1988.609296  	0.003823 
1990.538112  	0.003604 
1992.466928  	0.002959 
1994.395744  	0.002113 
1996.324560  	0.001694 
1998.253376  	0.002225 
2000.182192  	0.003924 
2002.111008  	0.003768 
2004.039824  	0.002865 
2005.968640  	0.003919 
2007.897456  	0.004493 
2009.826272  	0.004266 
2011.755088  	0.005129 
2013.683904  	0.003675 
2015.612720  	0.002600 
2017.541536  	0.003358 
2019.470352  	0.003627 
2021.399168  	0.003823 
2023.327984  	0.004046 
2025.256800  	0.002899 
2027.185616  	0.001990 
2029.114432  	0.002929 
2031.043248  	0.004077 
2032.972064  	0.004030 
2034.900880  	0.004695 
2036.829696  	0.004750 
2038.758512  	0.004061 
2040.687328  	0.003225 
2042.616144  	0.003253 
2044.544960  	0.004297 
2046.473776  	0.004619 
2048.402592  	0.004352 
2050.331408  	0.004263 
2052.260224  	0.003659 
2054.189040  	0.003682 
2056.117856  	0.003438 
2058.046672  	0.002963 
2059.975488  	0.003216 
2061.904304  	0.003929 
2063.833120  	0.004285 
2065.761936  	0.003906 
2067.690752  	0.002891 
2069.619568  	0.002909 
2071.548384  	0.003476 
2073.477200  	0.003417 
2075.406016  	0.003266 
2077.334832  	0.002809 
2079.263648  	0.002687 
2081.192464  	0.003130 
2083.121280  	0.003231 
2085.050096  	0.003281 
2086.978912  	0.003594 
2088.907728  	0.003660 
2090.836544  	0.003194 
2092.765360  	0.002995 
2094.694176  	0.003160 
2096.622992  	0.003495 
2098.551808  	0.003809 
2100.480624  	0.003693 
2102.409440  	0.003337 
2104.338256  	0.003522 
2106.267072  	0.003902 
2108.195888  	0.003994 
2110.124704  	0.003838 
2112.053520  	0.003585 
2113.982336  	0.002967 
2115.911152  	0.002725 
2117.839968  	0.002756 
2119.768784  	0.002586 
2121.697600  	0.002429 
2123.626416  	0.003056 
2125.555232  	0.002751 
2127.484048  	0.002503 
2129.412864  	0.002253 
2131.341680  	0.001396 
2133.270496  	0.001554 
2135.199312  	0.002175 
2137.128128  	0.002225 
2139.056944  	0.002006 
2140.985760  	0.001988 
2142.914576  	0.002539 
2144.843392  	0.002086 
2146.772208  	0.001791 
2148.701024  	0.002109 
2150.629840  	0.001560 
2152.558656  	0.000090 
2154.487472  	-0.000371 
2156.416288  	-0.000044 
2158.345104  	0.001222 
2160.273920  	0.005216 
2162.202736  	0.005841 
2164.131552  	0.004625 
2166.060368  	0.004502 
2167.989184  	0.004318 
2169.918000  	0.003187 
2171.846816  	0.002292 
2173.775632  	0.003145 
2175.704448  	0.003983 
2177.633264  	0.004749 
2179.562080  	0.004037 
2181.490896  	0.004651 
2183.419712  	0.005251 
2185.348528  	0.004854 
2187.277344  	0.004740 
2189.206160  	0.004766 
2191.134976  	0.004118 
2193.063792  	0.003586 
2194.992608  	0.003696 
2196.921424  	0.003428 
2198.850240  	0.003095 
2200.779056  	0.003753 
2202.707872  	0.004272 
2204.636688  	0.004078 
2206.565504  	0.003545 
2208.494320  	0.003149 
2210.423136  	0.003577 
2212.351952  	0.004293 
2214.280768  	0.004442 
2216.209584  	0.004009 
2218.138400  	0.003280 
2220.067216  	0.003718 
2221.996032  	0.004246 
2223.924848  	0.004221 
2225.853664  	0.004480 
2227.782480  	0.004400 
2229.711296  	0.003677 
2231.640112  	0.003359 
2233.568928  	0.002943 
2235.497744  	0.002629 
2237.426560  	0.002754 
2239.355376  	0.002885 
2241.284192  	0.003322 
2243.213008  	0.004086 
2245.141824  	0.004228 
2247.070640  	0.003853 
2248.999456  	0.003408 
2250.928272  	0.003295 
2252.857088  	0.003840 
2254.785904  	0.004303 
2256.714720  	0.003730 
2258.643536  	0.003491 
2260.572352  	0.003493 
2262.501168  	0.003466 
2264.429984  	0.003952 
2266.358800  	0.003808 
2268.287616  	0.003799 
2270.216432  	0.004198 
2272.145248  	0.003962 
2274.074064  	0.003961 
2276.002880  	0.004490 
2277.931696  	0.004617 
2279.860512  	0.004350 
2281.789328  	0.004935 
2283.718144  	0.005349 
2285.646960  	0.005083 
2287.575776  	0.004825 
2289.504592  	0.004623 
2291.433408  	0.004273 
2293.362224  	0.004093 
2295.291040  	0.004023 
2297.219856  	0.003861 
2299.148672  	0.003549 
2301.077488  	0.003365 
2303.006304  	0.003274 
2304.935120  	0.003121 
2306.863936  	0.002986 
2308.792752  	0.002869 
2310.721568  	0.002655 
2312.650384  	0.002428 
2314.579200  	0.002200 
2316.508016  	0.001758 
2318.436832  	0.001133 
2320.365648  	0.000941 
2322.294464  	0.001226 
2324.223280  	0.000904 
2326.152096  	-0.000422 
2328.080912  	-0.001634 
2330.009728  	-0.002113 
2331.938544  	-0.001988 
2333.867360  	-0.002032 
2335.796176  	-0.002399 
2337.724992  	-0.002779 
2339.653808  	-0.002865 
2341.582624  	-0.003216 
2343.511440  	-0.003276 
2345.440256  	-0.002109 
2347.369072  	-0.000647 
2349.297888  	-0.000274 
2351.226704  	-0.001376 
2353.155520  	-0.002708 
2355.084336  	-0.003548 
2357.013152  	-0.004759 
2358.941968  	-0.005792 
2360.870784  	-0.005792 
2362.799600  	-0.005338 
2364.728416  	-0.004738 
2366.657232  	-0.004277 
2368.586048  	-0.003365 
2370.514864  	-0.001851 
2372.443680  	-0.001090 
2374.372496  	0.000020 
2376.301312  	0.001085 
2378.230128  	0.002008 
2380.158944  	0.002527 
2382.087760  	0.002915 
2384.016576  	0.003243 
2385.945392  	0.003524 
2387.874208  	0.003727 
2389.803024  	0.003782 
2391.731840  	0.003771 
2393.660656  	0.004022 
2395.589472  	0.004160 
2397.518288  	0.004211 
2399.447104  	0.004205 
2401.375920  	0.004084 
2403.304736  	0.003864 
2405.233552  	0.004036 
2407.162368  	0.004145 
2409.091184  	0.004233 
2411.020000  	0.004165 
2412.948816  	0.004032 
2414.877632  	0.004112 
2416.806448  	0.004254 
2418.735264  	0.004416 
2420.664080  	0.004206 
2422.592896  	0.004018 
2424.521712  	0.003923 
2426.450528  	0.004013 
2428.379344  	0.004286 
2430.308160  	0.004467 
2432.236976  	0.004464 
2434.165792  	0.004326 
2436.094608  	0.004274 
2438.023424  	0.004536 
2439.952240  	0.004589 
2441.881056  	0.004288 
2443.809872  	0.004391 
2445.738688  	0.004509 
2447.667504  	0.004450 
2449.596320  	0.004414 
2451.525136  	0.004408 
2453.453952  	0.004491 
2455.382768  	0.004692 
2457.311584  	0.004751 
2459.240400  	0.004775 
2461.169216  	0.004649 
2463.098032  	0.004716 
2465.026848  	0.004798 
2466.955664  	0.004620 
2468.884480  	0.004500 
2470.813296  	0.004583 
2472.742112  	0.004728 
2474.670928  	0.004720 
2476.599744  	0.004549 
2478.528560  	0.004697 
2480.457376  	0.004866 
2482.386192  	0.004765 
2484.315008  	0.004712 
2486.243824  	0.004545 
2488.172640  	0.004672 
2490.101456  	0.004989 
2492.030272  	0.005030 
2493.959088  	0.004743 
2495.887904  	0.004849 
2497.816720  	0.005063 
2499.745536  	0.005009 
2501.674352  	0.005000 
2503.603168  	0.004876 
2505.531984  	0.004669 
2507.460800  	0.004870 
2509.389616  	0.005207 
2511.318432  	0.005243 
2513.247248  	0.005060 
2515.176064  	0.004886 
2517.104880  	0.004931 
2519.033696  	0.005092 
2520.962512  	0.005056 
2522.891328  	0.005069 
2524.820144  	0.005195 
2526.748960  	0.005138 
2528.677776  	0.005114 
2530.606592  	0.005141 
2532.535408  	0.005189 
2534.464224  	0.005317 
2536.393040  	0.005508 
2538.321856  	0.005547 
2540.250672  	0.005697 
2542.179488  	0.005981 
2544.108304  	0.005892 
2546.037120  	0.005756 
2547.965936  	0.005902 
2549.894752  	0.005833 
2551.823568  	0.005768 
2553.752384  	0.005716 
2555.681200  	0.005592 
2557.610016  	0.005798 
2559.538832  	0.006023 
2561.467648  	0.006025 
2563.396464  	0.005922 
2565.325280  	0.005998 
2567.254096  	0.006212 
2569.182912  	0.006124 
2571.111728  	0.006091 
2573.040544  	0.006015 
2574.969360  	0.005975 
2576.898176  	0.006062 
2578.826992  	0.006223 
2580.755808  	0.006215 
2582.684624  	0.006213 
2584.613440  	0.006361 
2586.542256  	0.006333 
2588.471072  	0.006208 
2590.399888  	0.006250 
2592.328704  	0.006204 
2594.257520  	0.006366 
2596.186336  	0.006574 
2598.115152  	0.006677 
2600.043968  	0.006809 
2601.972784  	0.006847 
2603.901600  	0.006776 
2605.830416  	0.006883 
2607.759232  	0.006862 
2609.688048  	0.006730 
2611.616864  	0.006713 
2613.545680  	0.006799 
2615.474496  	0.007080 
2617.403312  	0.007117 
2619.332128  	0.006888 
2621.260944  	0.006872 
2623.189760  	0.006967 
2625.118576  	0.007118 
2627.047392  	0.007329 
2628.976208  	0.007445 
2630.905024  	0.007393 
2632.833840  	0.007417 
2634.762656  	0.007412 
2636.691472  	0.007416 
2638.620288  	0.007542 
2640.549104  	0.007627 
2642.477920  	0.007705 
2644.406736  	0.007728 
2646.335552  	0.007780 
2648.264368  	0.007928 
2650.193184  	0.008036 
2652.122000  	0.008040 
2654.050816  	0.008038 
2655.979632  	0.007953 
2657.908448  	0.007878 
2659.837264  	0.007902 
2661.766080  	0.007786 
2663.694896  	0.007684 
2665.623712  	0.007683 
2667.552528  	0.007728 
2669.481344  	0.007715 
2671.410160  	0.007745 
2673.338976  	0.007821 
2675.267792  	0.007811 
2677.196608  	0.007939 
2679.125424  	0.008075 
2681.054240  	0.008144 
2682.983056  	0.008236 
2684.911872  	0.008204 
2686.840688  	0.008082 
2688.769504  	0.008042 
2690.698320  	0.008114 
2692.627136  	0.008198 
2694.555952  	0.008287 
2696.484768  	0.008428 
2698.413584  	0.008476 
2700.342400  	0.008397 
2702.271216  	0.008392 
2704.200032  	0.008361 
2706.128848  	0.008425 
2708.057664  	0.008583 
2709.986480  	0.008747 
2711.915296  	0.008803 
2713.844112  	0.008829 
2715.772928  	0.008780 
2717.701744  	0.008867 
2719.630560  	0.008917 
2721.559376  	0.008912 
2723.488192  	0.009034 
2725.417008  	0.009119 
2727.345824  	0.009145 
2729.274640  	0.009174 
2731.203456  	0.009155 
2733.132272  	0.009124 
2735.061088  	0.009201 
2736.989904  	0.009291 
2738.918720  	0.009278 
2740.847536  	0.009284 
2742.776352  	0.009354 
2744.705168  	0.009397 
2746.633984  	0.009329 
2748.562800  	0.009315 
2750.491616  	0.009457 
2752.420432  	0.009485 
2754.349248  	0.009471 
2756.278064  	0.009650 
2758.206880  	0.009856 
2760.135696  	0.009896 
2762.064512  	0.009832 
2763.993328  	0.009774 
2765.922144  	0.009833 
2767.850960  	0.009885 
2769.779776  	0.009989 
2771.708592  	0.010048 
2773.637408  	0.009975 
2775.566224  	0.009958 
2777.495040  	0.010182 
2779.423856  	0.010359 
2781.352672  	0.010187 
2783.281488  	0.010087 
2785.210304  	0.010225 
2787.139120  	0.010259 
2789.067936  	0.010181 
2790.996752  	0.010317 
2792.925568  	0.010430 
2794.854384  	0.010445 
2796.783200  	0.010589 
2798.712016  	0.010630 
2800.640832  	0.010615 
2802.569648  	0.010621 
2804.498464  	0.010693 
2806.427280  	0.010700 
2808.356096  	0.010647 
2810.284912  	0.010662 
2812.213728  	0.010756 
2814.142544  	0.010882 
2816.071360  	0.010917 
2818.000176  	0.010999 
2819.928992  	0.010980 
2821.857808  	0.010992 
2823.786624  	0.011185 
2825.715440  	0.011269 
2827.644256  	0.011143 
2829.573072  	0.011090 
2831.501888  	0.011146 
2833.430704  	0.011171 
2835.359520  	0.011180 
2837.288336  	0.011141 
2839.217152  	0.011066 
2841.145968  	0.011082 
2843.074784  	0.011085 
2845.003600  	0.011221 
2846.932416  	0.011445 
2848.861232  	0.011564 
2850.790048  	0.011509 
2852.718864  	0.011428 
2854.647680  	0.011476 
2856.576496  	0.011568 
2858.505312  	0.011544 
2860.434128  	0.011583 
2862.362944  	0.011690 
2864.291760  	0.011717 
2866.220576  	0.011714 
2868.149392  	0.011809 
2870.078208  	0.012019 
2872.007024  	0.012300 
2873.935840  	0.012383 
2875.864656  	0.012481 
2877.793472  	0.012716 
2879.722288  	0.013046 
2881.651104  	0.013277 
2883.579920  	0.013288 
2885.508736  	0.013355 
2887.437552  	0.013432 
2889.366368  	0.013365 
2891.295184  	0.013415 
2893.224000  	0.013687 
2895.152816  	0.013749 
2897.081632  	0.013741 
2899.010448  	0.013765 
2900.939264  	0.013788 
2902.868080  	0.013814 
2904.796896  	0.013842 
2906.725712  	0.014103 
2908.654528  	0.014336 
2910.583344  	0.014201 
2912.512160  	0.014220 
2914.440976  	0.014579 
2916.369792  	0.014897 
2918.298608  	0.014962 
2920.227424  	0.015005 
2922.156240  	0.015096 
2924.085056  	0.015392 
2926.013872  	0.015667 
2927.942688  	0.015767 
2929.871504  	0.015947 
2931.800320  	0.016260 
2933.729136  	0.016373 
2935.657952  	0.016422 
2937.586768  	0.016562 
2939.515584  	0.016644 
2941.444400  	0.016851 
2943.373216  	0.016892 
2945.302032  	0.016878 
2947.230848  	0.016961 
2949.159664  	0.017118 
2951.088480  	0.017151 
2953.017296  	0.017114 
2954.946112  	0.017165 
2956.874928  	0.017196 
2958.803744  	0.017098 
2960.732560  	0.017062 
2962.661376  	0.017095 
2964.590192  	0.017123 
2966.519008  	0.016990 
2968.447824  	0.016825 
2970.376640  	0.016875 
2972.305456  	0.016773 
2974.234272  	0.016570 
2976.163088  	0.016569 
2978.091904  	0.016421 
2980.020720  	0.016420 
2981.949536  	0.016578 
2983.878352  	0.016627 
2985.807168  	0.016479 
2987.735984  	0.016360 
2989.664800  	0.016474 
2991.593616  	0.016427 
2993.522432  	0.016326 
2995.451248  	0.016312 
2997.380064  	0.016348 
2999.308880  	0.016406 
3001.237696  	0.016385 
3003.166512  	0.016436 
3005.095328  	0.016534 
3007.024144  	0.016451 
3008.952960  	0.016399 
3010.881776  	0.016527 
3012.810592  	0.016629 
3014.739408  	0.016806 
3016.668224  	0.016766 
3018.597040  	0.016661 
3020.525856  	0.016653 
3022.454672  	0.016649 
3024.383488  	0.016799 
3026.312304  	0.016889 
3028.241120  	0.016882 
3030.169936  	0.017021 
3032.098752  	0.017166 
3034.027568  	0.017161 
3035.956384  	0.017224 
3037.885200  	0.017339 
3039.814016  	0.017416 
3041.742832  	0.017415 
3043.671648  	0.017449 
3045.600464  	0.017736 
3047.529280  	0.017932 
3049.458096  	0.017805 
3051.386912  	0.017473 
3053.315728  	0.017468 
3055.244544  	0.017753 
3057.173360  	0.017977 
3059.102176  	0.018078 
3061.030992  	0.018182 
3062.959808  	0.018475 
3064.888624  	0.018717 
3066.817440  	0.018850 
3068.746256  	0.018983 
3070.675072  	0.019121 
3072.603888  	0.019225 
3074.532704  	0.019376 
3076.461520  	0.019645 
3078.390336  	0.019717 
3080.319152  	0.019780 
3082.247968  	0.019875 
3084.176784  	0.019944 
3086.105600  	0.020128 
3088.034416  	0.020453 
3089.963232  	0.020619 
3091.892048  	0.020668 
3093.820864  	0.020753 
3095.749680  	0.020912 
3097.678496  	0.020992 
3099.607312  	0.021025 
3101.536128  	0.021262 
3103.464944  	0.021525 
3105.393760  	0.021597 
3107.322576  	0.021706 
3109.251392  	0.021838 
3111.180208  	0.021933 
3113.109024  	0.022103 
3115.037840  	0.022242 
3116.966656  	0.022303 
3118.895472  	0.022480 
3120.824288  	0.022660 
3122.753104  	0.022669 
3124.681920  	0.022636 
3126.610736  	0.022753 
3128.539552  	0.022957 
3130.468368  	0.023168 
3132.397184  	0.023443 
3134.326000  	0.023559 
3136.254816  	0.023575 
3138.183632  	0.023598 
3140.112448  	0.023767 
3142.041264  	0.023993 
3143.970080  	0.024122 
3145.898896  	0.024181 
3147.827712  	0.024121 
3149.756528  	0.023967 
3151.685344  	0.024188 
3153.614160  	0.024543 
3155.542976  	0.024765 
3157.471792  	0.024939 
3159.400608  	0.025043 
3161.329424  	0.025064 
3163.258240  	0.025029 
3165.187056  	0.025306 
3167.115872  	0.025516 
3169.044688  	0.025436 
3170.973504  	0.025396 
3172.902320  	0.025610 
3174.831136  	0.025877 
3176.759952  	0.025955 
3178.688768  	0.025977 
3180.617584  	0.026284 
3182.546400  	0.026417 
3184.475216  	0.026502 
3186.404032  	0.026580 
3188.332848  	0.026651 
3190.261664  	0.026710 
3192.190480  	0.026745 
3194.119296  	0.026792 
3196.048112  	0.026767 
3197.976928  	0.026706 
3199.905744  	0.026646 
3201.834560  	0.026830 
3203.763376  	0.026995 
3205.692192  	0.027059 
3207.621008  	0.026994 
3209.549824  	0.026826 
3211.478640  	0.026713 
3213.407456  	0.026741 
3215.336272  	0.026877 
3217.265088  	0.026901 
3219.193904  	0.026793 
3221.122720  	0.026943 
3223.051536  	0.026750 
3224.980352  	0.026489 
3226.909168  	0.026516 
3228.837984  	0.026624 
3230.766800  	0.026458 
3232.695616  	0.026350 
3234.624432  	0.026367 
3236.553248  	0.026449 
3238.482064  	0.026656 
3240.410880  	0.026516 
3242.339696  	0.026199 
3244.268512  	0.026158 
3246.197328  	0.026349 
3248.126144  	0.026327 
3250.054960  	0.026367 
3251.983776  	0.026361 
3253.912592  	0.026412 
3255.841408  	0.026489 
3257.770224  	0.026336 
3259.699040  	0.026465 
3261.627856  	0.026587 
3263.556672  	0.026606 
3265.485488  	0.026749 
3267.414304  	0.026712 
3269.343120  	0.026583 
3271.271936  	0.026481 
3273.200752  	0.026707 
3275.129568  	0.027004 
3277.058384  	0.026967 
3278.987200  	0.026871 
3280.916016  	0.026879 
3282.844832  	0.026938 
3284.773648  	0.027189 
3286.702464  	0.027293 
3288.631280  	0.027333 
3290.560096  	0.027377 
3292.488912  	0.027366 
3294.417728  	0.027542 
3296.346544  	0.027665 
3298.275360  	0.027757 
3300.204176  	0.027828 
3302.132992  	0.027889 
3304.061808  	0.028103 
3305.990624  	0.028211 
3307.919440  	0.028364 
3309.848256  	0.028590 
3311.777072  	0.028689 
3313.705888  	0.028856 
3315.634704  	0.028868 
3317.563520  	0.028886 
3319.492336  	0.029168 
3321.421152  	0.029451 
3323.349968  	0.029425 
3325.278784  	0.029424 
3327.207600  	0.029747 
3329.136416  	0.029829 
3331.065232  	0.029677 
3332.994048  	0.029611 
3334.922864  	0.029630 
3336.851680  	0.029809 
3338.780496  	0.029868 
3340.709312  	0.029804 
3342.638128  	0.029814 
3344.566944  	0.029961 
3346.495760  	0.030015 
3348.424576  	0.029880 
3350.353392  	0.029825 
3352.282208  	0.029644 
3354.211024  	0.029441 
3356.139840  	0.029437 
3358.068656  	0.029585 
3359.997472  	0.029732 
3361.926288  	0.029678 
3363.855104  	0.029467 
3365.783920  	0.029298 
3367.712736  	0.029019 
3369.641552  	0.028976 
3371.570368  	0.029034 
3373.499184  	0.029012 
3375.428000  	0.029033 
3377.356816  	0.028954 
3379.285632  	0.028608 
3381.214448  	0.028295 
3383.143264  	0.028131 
3385.072080  	0.027951 
3387.000896  	0.027773 
3388.929712  	0.027749 
3390.858528  	0.027522 
3392.787344  	0.027376 
3394.716160  	0.027348 
3396.644976  	0.027461 
3398.573792  	0.027545 
3400.502608  	0.027502 
3402.431424  	0.027448 
3404.360240  	0.027264 
3406.289056  	0.026883 
3408.217872  	0.026769 
3410.146688  	0.026735 
3412.075504  	0.026660 
3414.004320  	0.026572 
3415.933136  	0.026375 
3417.861952  	0.026019 
3419.790768  	0.025943 
3421.719584  	0.026093 
3423.648400  	0.025953 
3425.577216  	0.025704 
3427.506032  	0.025731 
3429.434848  	0.025705 
3431.363664  	0.025508 
3433.292480  	0.025356 
3435.221296  	0.024983 
3437.150112  	0.024726 
3439.078928  	0.024722 
3441.007744  	0.024653 
3442.936560  	0.024507 
3444.865376  	0.024186 
3446.794192  	0.024010 
3448.723008  	0.024088 
3450.651824  	0.024008 
3452.580640  	0.023730 
3454.509456  	0.023600 
3456.438272  	0.023443 
3458.367088  	0.023085 
3460.295904  	0.022785 
3462.224720  	0.022752 
3464.153536  	0.022626 
3466.082352  	0.022378 
3468.011168  	0.021971 
3469.939984  	0.021764 
3471.868800  	0.021720 
3473.797616  	0.021593 
3475.726432  	0.021390 
3477.655248  	0.021254 
3479.584064  	0.021181 
3481.512880  	0.020904 
3483.441696  	0.020589 
3485.370512  	0.020301 
3487.299328  	0.020162 
3489.228144  	0.019966 
3491.156960  	0.019630 
3493.085776  	0.019460 
3495.014592  	0.019216 
3496.943408  	0.018839 
3498.872224  	0.018801 
3500.801040  	0.018823 
3502.729856  	0.018692 
3504.658672  	0.018390 
3506.587488  	0.018036 
3508.516304  	0.017651 
3510.445120  	0.017508 
3512.373936  	0.017512 
3514.302752  	0.017177 
3516.231568  	0.017104 
3518.160384  	0.017160 
3520.089200  	0.017059 
3522.018016  	0.016840 
3523.946832  	0.016513 
3525.875648  	0.016158 
3527.804464  	0.016146 
3529.733280  	0.015932 
3531.662096  	0.015757 
3533.590912  	0.015624 
3535.519728  	0.015577 
3537.448544  	0.015500 
3539.377360  	0.015313 
3541.306176  	0.015006 
3543.234992  	0.014911 
3545.163808  	0.014819 
3547.092624  	0.014638 
3549.021440  	0.014320 
3550.950256  	0.013962 
3552.879072  	0.013861 
3554.807888  	0.014010 
3556.736704  	0.014040 
3558.665520  	0.013805 
3560.594336  	0.013436 
3562.523152  	0.013189 
3564.451968  	0.012919 
3566.380784  	0.012785 
3568.309600  	0.012858 
3570.238416  	0.012474 
3572.167232  	0.011984 
3574.096048  	0.012037 
3576.024864  	0.012048 
3577.953680  	0.011727 
3579.882496  	0.011421 
3581.811312  	0.011397 
3583.740128  	0.011351 
3585.668944  	0.011087 
3587.597760  	0.011232 
3589.526576  	0.011116 
3591.455392  	0.010455 
3593.384208  	0.010140 
3595.313024  	0.010014 
3597.241840  	0.010193 
3599.170656  	0.010006 
3601.099472  	0.009718 
3603.028288  	0.009485 
3604.957104  	0.009090 
3606.885920  	0.008885 
3608.814736  	0.008722 
3610.743552  	0.008414 
3612.672368  	0.008343 
3614.601184  	0.008250 
3616.530000  	0.008005 
3618.458816  	0.007559 
3620.387632  	0.007539 
3622.316448  	0.007189 
3624.245264  	0.006835 
3626.174080  	0.006372 
3628.102896  	0.005956 
3630.031712  	0.006309 
3631.960528  	0.006104 
3633.889344  	0.005885 
3635.818160  	0.005804 
3637.746976  	0.005838 
3639.675792  	0.005761 
3641.604608  	0.005635 
3643.533424  	0.005361 
3645.462240  	0.004839 
3647.391056  	0.004616 
3649.319872  	0.004817 
3651.248688  	0.004841 
3653.177504  	0.004204 
3655.106320  	0.004111 
3657.035136  	0.004174 
3658.963952  	0.004079 
3660.892768  	0.003950 
3662.821584  	0.004023 
3664.750400  	0.003950 
3666.679216  	0.003556 
3668.608032  	0.003441 
3670.536848  	0.003771 
3672.465664  	0.003433 
3674.394480  	0.003399 
3676.323296  	0.003805 
3678.252112  	0.003345 
3680.180928  	0.003100 
3682.109744  	0.002775 
3684.038560  	0.002628 
3685.967376  	0.002661 
3687.896192  	0.002912 
3689.825008  	0.002917 
3691.753824  	0.002600 
3693.682640  	0.002329 
3695.611456  	0.002312 
3697.540272  	0.002367 
3699.469088  	0.002304 
3701.397904  	0.002422 
3703.326720  	0.002475 
3705.255536  	0.002288 
3707.184352  	0.002122 
3709.113168  	0.001999 
3711.041984  	0.002265 
3712.970800  	0.002505 
3714.899616  	0.002303 
3716.828432  	0.002383 
3718.757248  	0.002256 
3720.686064  	0.002037 
3722.614880  	0.002310 
3724.543696  	0.002340 
3726.472512  	0.002438 
3728.401328  	0.002310 
3730.330144  	0.001915 
3732.258960  	0.001942 
3734.187776  	0.002115 
3736.116592  	0.002684 
3738.045408  	0.002595 
3739.974224  	0.002312 
3741.903040  	0.001990 
3743.831856  	0.002212 
3745.760672  	0.002505 
3747.689488  	0.002214 
3749.618304  	0.002443 
3751.547120  	0.002754 
3753.475936  	0.002873 
3755.404752  	0.002744 
3757.333568  	0.002575 
3759.262384  	0.002349 
3761.191200  	0.002298 
3763.120016  	0.002190 
3765.048832  	0.002172 
3766.977648  	0.002222 
3768.906464  	0.002403 
3770.835280  	0.002815 
3772.764096  	0.002608 
3774.692912  	0.002305 
3776.621728  	0.002271 
3778.550544  	0.002621 
3780.479360  	0.002904 
3782.408176  	0.002533 
3784.336992  	0.002339 
3786.265808  	0.002392 
3788.194624  	0.002516 
3790.123440  	0.002595 
3792.052256  	0.002633 
3793.981072  	0.002606 
3795.909888  	0.002576 
3797.838704  	0.002355 
3799.767520  	0.002175 
3801.696336  	0.002637 
3803.625152  	0.002614 
3805.553968  	0.002395 
3807.482784  	0.002497 
3809.411600  	0.002445 
3811.340416  	0.002408 
3813.269232  	0.002243 
3815.198048  	0.002271 
3817.126864  	0.002531 
3819.055680  	0.002317 
3820.984496  	0.002347 
3822.913312  	0.002359 
3824.842128  	0.002331 
3826.770944  	0.002471 
3828.699760  	0.002173 
3830.628576  	0.002148 
3832.557392  	0.002250 
3834.486208  	0.002058 
3836.415024  	0.002105 
3838.343840  	0.002571 
3840.272656  	0.002587 
3842.201472  	0.002564 
3844.130288  	0.002861 
3846.059104  	0.002736 
3847.987920  	0.002473 
3849.916736  	0.002389 
3851.845552  	0.002557 
3853.774368  	0.003070 
3855.703184  	0.002698 
3857.632000  	0.002338 
3859.560816  	0.002225 
3861.489632  	0.002339 
3863.418448  	0.002520 
3865.347264  	0.002554 
3867.276080  	0.002195 
3869.204896  	0.002264 
3871.133712  	0.002659 
3873.062528  	0.002619 
3874.991344  	0.002658 
3876.920160  	0.002478 
3878.848976  	0.002461 
3880.777792  	0.002713 
3882.706608  	0.002644 
3884.635424  	0.002493 
3886.564240  	0.002748 
3888.493056  	0.002654 
3890.421872  	0.002580 
3892.350688  	0.002558 
3894.279504  	0.002292 
3896.208320  	0.002052 
3898.137136  	0.002178 
3900.065952  	0.002603 
3901.994768  	0.002564 
3903.923584  	0.002533 
3905.852400  	0.002650 
3907.781216  	0.002402 
3909.710032  	0.002470 
3911.638848  	0.002680 
3913.567664  	0.002486 
3915.496480  	0.002431 
3917.425296  	0.002567 
3919.354112  	0.002594 
3921.282928  	0.002612 
3923.211744  	0.002491 
3925.140560  	0.002447 
3927.069376  	0.002451 
3928.998192  	0.002514 
3930.927008  	0.002555 
3932.855824  	0.002473 
3934.784640  	0.002386 
3936.713456  	0.002446 
3938.642272  	0.002513 
3940.571088  	0.002527 
3942.499904  	0.002526 
3944.428720  	0.002496 
3946.357536  	0.002483 
3948.286352  	0.002536 
3950.215168  	0.002540 
3952.143984  	0.002566 
3954.072800  	0.002520 
3956.001616  	0.002688 
3957.930432  	0.002728 
3959.859248  	0.002819 
3961.788064  	0.002692 
3963.716880  	0.002505 
3965.645696  	0.002309 
3967.574512  	0.002300 
3969.503328  	0.002431 
3971.432144  	0.002559 
3973.360960  	0.002607 
3975.289776  	0.002695 
3977.218592  	0.002815 
3979.147408  	0.002719 
3981.076224  	0.002776 
3983.005040  	0.002896 
3984.933856  	0.002763 
3986.862672  	0.002568 
3988.791488  	0.002461 
3990.720304  	0.002519 
3992.649120  	0.002562 
3994.577936  	0.002585 
3996.506752  	0.002755 
3998.435568  	0.002763 
4000.364384  	0.002482 