##TITLE=No Description
##DATA TYPE=INFRARED SPECTRUM
##XUNITS=1/CM
##YUNITS=Abs
399.264912  	0.258975 
401.193728  	0.244716 
403.122544  	0.237316 
405.051360  	0.235219 
406.980176  	0.231731 
408.908992  	0.226969 
410.837808  	0.227184 
412.766624  	0.226532 
414.695440  	0.227884 
416.624256  	0.226626 
418.553072  	0.228010 
420.481888  	0.221523 
422.410704  	0.220246 
424.339520  	0.219925 
426.268336  	0.222385 
428.197152  	0.219104 
430.125968  	0.217823 
432.054784  	0.215816 
433.983600  	0.214785 
435.912416  	0.208988 
437.841232  	0.206106 
439.770048  	0.207268 
441.698864  	0.211055 
443.627680  	0.207505 
445.556496  	0.202158 
447.485312  	0.199521 
449.414128  	0.200092 
451.342944  	0.201178 
453.271760  	0.206612 
455.200576  	0.209308 
457.129392  	0.208330 
459.058208  	0.204637 
460.987024  	0.205235 
462.915840  	0.205545 
464.844656  	0.206047 
466.773472  	0.205165 
468.702288  	0.205930 
470.631104  	0.207878 
472.559920  	0.210214 
474.488736  	0.208059 
476.417552  	0.207908 
478.346368  	0.207297 
480.275184  	0.205443 
482.204000  	0.205530 
484.132816  	0.205275 
486.061632  	0.202986 
487.990448  	0.205631 
489.919264  	0.206798 
491.848080  	0.207369 
493.776896  	0.206694 
495.705712  	0.207406 
497.634528  	0.207454 
499.563344  	0.209169 
501.492160  	0.209629 
503.420976  	0.210303 
505.349792  	0.208825 
507.278608  	0.211338 
509.207424  	0.213316 
511.136240  	0.214277 
513.065056  	0.215879 
514.993872  	0.216639 
516.922688  	0.215628 
518.851504  	0.218215 
520.780320  	0.218759 
522.709136  	0.218568 
524.637952  	0.218496 
526.566768  	0.219813 
528.495584  	0.220377 
530.424400  	0.219866 
532.353216  	0.218107 
534.282032  	0.218801 
536.210848  	0.218923 
538.139664  	0.218528 
540.068480  	0.217838 
541.997296  	0.216774 
543.926112  	0.216366 
545.854928  	0.217055 
547.783744  	0.216677 
549.712560  	0.216627 
551.641376  	0.215975 
553.570192  	0.215578 
555.499008  	0.214984 
557.427824  	0.215062 
559.356640  	0.214697 
561.285456  	0.214010 
563.214272  	0.212990 
565.143088  	0.212804 
567.071904  	0.211944 
569.000720  	0.211473 
570.929536  	0.211090 
572.858352  	0.211352 
574.787168  	0.210250 
576.715984  	0.208847 
578.644800  	0.208025 
580.573616  	0.207877 
582.502432  	0.206576 
584.431248  	0.206151 
586.360064  	0.205660 
588.288880  	0.205273 
590.217696  	0.205009 
592.146512  	0.204612 
594.075328  	0.203811 
596.004144  	0.203323 
597.932960  	0.202663 
599.861776  	0.202723 
601.790592  	0.202191 
603.719408  	0.202030 
605.648224  	0.201844 
607.577040  	0.201395 
609.505856  	0.201084 
611.434672  	0.201285 
613.363488  	0.200411 
615.292304  	0.200061 
617.221120  	0.199203 
619.149936  	0.198826 
621.078752  	0.198437 
623.007568  	0.198043 
624.936384  	0.197408 
626.865200  	0.197166 
628.794016  	0.196837 
630.722832  	0.196687 
632.651648  	0.196289 
634.580464  	0.195596 
636.509280  	0.194919 
638.438096  	0.194905 
640.366912  	0.195114 
642.295728  	0.195038 
644.224544  	0.194147 
646.153360  	0.193525 
648.082176  	0.191864 
650.010992  	0.190428 
651.939808  	0.189093 
653.868624  	0.188352 
655.797440  	0.187398 
657.726256  	0.186623 
659.655072  	0.185127 
661.583888  	0.183730 
663.512704  	0.182440 
665.441520  	0.181405 
667.370336  	0.178267 
669.299152  	0.175888 
671.227968  	0.176041 
673.156784  	0.175325 
675.085600  	0.174407 
677.014416  	0.173508 
678.943232  	0.172230 
680.872048  	0.171078 
682.800864  	0.170733 
684.729680  	0.170614 
686.658496  	0.169597 
688.587312  	0.168882 
690.516128  	0.168300 
692.444944  	0.167438 
694.373760  	0.166170 
696.302576  	0.165712 
698.231392  	0.164839 
700.160208  	0.163654 
702.089024  	0.162150 
704.017840  	0.160825 
705.946656  	0.159561 
707.875472  	0.158546 
709.804288  	0.157195 
711.733104  	0.156445 
713.661920  	0.155699 
715.590736  	0.154813 
717.519552  	0.154347 
719.448368  	0.153885 
721.377184  	0.153092 
723.306000  	0.152862 
725.234816  	0.152768 
727.163632  	0.152225 
729.092448  	0.150950 
731.021264  	0.149559 
732.950080  	0.148615 
734.878896  	0.147821 
736.807712  	0.146381 
738.736528  	0.145187 
740.665344  	0.144465 
742.594160  	0.143998 
744.522976  	0.142917 
746.451792  	0.142136 
748.380608  	0.141236 
750.309424  	0.140295 
752.238240  	0.139495 
754.167056  	0.139031 
756.095872  	0.138436 
758.024688  	0.137752 
759.953504  	0.136608 
761.882320  	0.135880 
763.811136  	0.135266 
765.739952  	0.134435 
767.668768  	0.133424 
769.597584  	0.132551 
771.526400  	0.131985 
773.455216  	0.131669 
775.384032  	0.131550 
777.312848  	0.131888 
779.241664  	0.132300 
781.170480  	0.132228 
783.099296  	0.130948 
785.028112  	0.129290 
786.956928  	0.127137 
788.885744  	0.125033 
790.814560  	0.123395 
792.743376  	0.122088 
794.672192  	0.120713 
796.601008  	0.119678 
798.529824  	0.118515 
800.458640  	0.117254 
802.387456  	0.115598 
804.316272  	0.114257 
806.245088  	0.113096 
808.173904  	0.112088 
810.102720  	0.111342 
812.031536  	0.110455 
813.960352  	0.109550 
815.889168  	0.108876 
817.817984  	0.107949 
819.746800  	0.106900 
821.675616  	0.105977 
823.604432  	0.105383 
825.533248  	0.104727 
827.462064  	0.103723 
829.390880  	0.102864 
831.319696  	0.101924 
833.248512  	0.100749 
835.177328  	0.099819 
837.106144  	0.098311 
839.034960  	0.096947 
840.963776  	0.095914 
842.892592  	0.094736 
844.821408  	0.093355 
846.750224  	0.092014 
848.679040  	0.091066 
850.607856  	0.090067 
852.536672  	0.088975 
854.465488  	0.088284 
856.394304  	0.087438 
858.323120  	0.086791 
860.251936  	0.085962 
862.180752  	0.085244 
864.109568  	0.084308 
866.038384  	0.083415 
867.967200  	0.082674 
869.896016  	0.082029 
871.824832  	0.081244 
873.753648  	0.081006 
875.682464  	0.080877 
877.611280  	0.080529 
879.540096  	0.080164 
881.468912  	0.079786 
883.397728  	0.079545 
885.326544  	0.079471 
887.255360  	0.079076 
889.184176  	0.078538 
891.112992  	0.078036 
893.041808  	0.077405 
894.970624  	0.076477 
896.899440  	0.075418 
898.828256  	0.074431 
900.757072  	0.073468 
902.685888  	0.072603 
904.614704  	0.071709 
906.543520  	0.071036 
908.472336  	0.070915 
910.401152  	0.071066 
912.329968  	0.071265 
914.258784  	0.071629 
916.187600  	0.072090 
918.116416  	0.072334 
920.045232  	0.072148 
921.974048  	0.071677 
923.902864  	0.071182 
925.831680  	0.070445 
927.760496  	0.069847 
929.689312  	0.069619 
931.618128  	0.069443 
933.546944  	0.069090 
935.475760  	0.068603 
937.404576  	0.068227 
939.333392  	0.067898 
941.262208  	0.067651 
943.191024  	0.067728 
945.119840  	0.068024 
947.048656  	0.068381 
948.977472  	0.068863 
950.906288  	0.069721 
952.835104  	0.070854 
954.763920  	0.071905 
956.692736  	0.072668 
958.621552  	0.073507 
960.550368  	0.073768 
962.479184  	0.073545 
964.408000  	0.072907 
966.336816  	0.071699 
968.265632  	0.069765 
970.194448  	0.067472 
972.123264  	0.064922 
974.052080  	0.061986 
975.980896  	0.059062 
977.909712  	0.056297 
979.838528  	0.053906 
981.767344  	0.051644 
983.696160  	0.049807 
985.624976  	0.048504 
987.553792  	0.047653 
989.482608  	0.047285 
991.411424  	0.047527 
993.340240  	0.048040 
995.269056  	0.048953 
997.197872  	0.050092 
999.126688  	0.051159 
1001.055504  	0.052221 
1002.984320  	0.053540 
1004.913136  	0.054983 
1006.841952  	0.056228 
1008.770768  	0.057284 
1010.699584  	0.058202 
1012.628400  	0.058930 
1014.557216  	0.059395 
1016.486032  	0.059622 
1018.414848  	0.059755 
1020.343664  	0.059688 
1022.272480  	0.059567 
1024.201296  	0.059442 
1026.130112  	0.059370 
1028.058928  	0.059260 
1029.987744  	0.058974 
1031.916560  	0.059147 
1033.845376  	0.059722 
1035.774192  	0.060730 
1037.703008  	0.061697 
1039.631824  	0.062742 
1041.560640  	0.064276 
1043.489456  	0.066173 
1045.418272  	0.068391 
1047.347088  	0.071223 
1049.275904  	0.074600 
1051.204720  	0.077884 
1053.133536  	0.080732 
1055.062352  	0.083386 
1056.991168  	0.085706 
1058.919984  	0.086987 
1060.848800  	0.087411 
1062.777616  	0.087964 
1064.706432  	0.088349 
1066.635248  	0.088020 
1068.564064  	0.086744 
1070.492880  	0.085501 
1072.421696  	0.084607 
1074.350512  	0.083587 
1076.279328  	0.082247 
1078.208144  	0.081333 
1080.136960  	0.080684 
1082.065776  	0.080008 
1083.994592  	0.079187 
1085.923408  	0.078410 
1087.852224  	0.077524 
1089.781040  	0.076547 
1091.709856  	0.075023 
1093.638672  	0.073243 
1095.567488  	0.071223 
1097.496304  	0.069064 
1099.425120  	0.066741 
1101.353936  	0.064296 
1103.282752  	0.061651 
1105.211568  	0.058938 
1107.140384  	0.056408 
1109.069200  	0.054014 
1110.998016  	0.051147 
1112.926832  	0.048523 
1114.855648  	0.046308 
1116.784464  	0.044173 
1118.713280  	0.042008 
1120.642096  	0.039658 
1122.570912  	0.037516 
1124.499728  	0.035788 
1126.428544  	0.034060 
1128.357360  	0.032341 
1130.286176  	0.030770 
1132.214992  	0.029453 
1134.143808  	0.028282 
1136.072624  	0.026991 
1138.001440  	0.025806 
1139.930256  	0.024717 
1141.859072  	0.023649 
1143.787888  	0.022816 
1145.716704  	0.021828 
1147.645520  	0.020998 
1149.574336  	0.020392 
1151.503152  	0.019812 
1153.431968  	0.019688 
1155.360784  	0.019565 
1157.289600  	0.019425 
1159.218416  	0.019331 
1161.147232  	0.019385 
1163.076048  	0.019444 
1165.004864  	0.019680 
1166.933680  	0.020040 
1168.862496  	0.020375 
1170.791312  	0.020695 
1172.720128  	0.021103 
1174.648944  	0.021639 
1176.577760  	0.022133 
1178.506576  	0.022873 
1180.435392  	0.023381 
1182.364208  	0.023895 
1184.293024  	0.024600 
1186.221840  	0.025165 
1188.150656  	0.025752 
1190.079472  	0.026638 
1192.008288  	0.027799 
1193.937104  	0.028858 
1195.865920  	0.030228 
1197.794736  	0.031669 
1199.723552  	0.033154 
1201.652368  	0.034894 
1203.581184  	0.036714 
1205.510000  	0.038425 
1207.438816  	0.040383 
1209.367632  	0.042418 
1211.296448  	0.043913 
1213.225264  	0.045360 
1215.154080  	0.046755 
1217.082896  	0.048107 
1219.011712  	0.049405 
1220.940528  	0.050547 
1222.869344  	0.051401 
1224.798160  	0.052097 
1226.726976  	0.052715 
1228.655792  	0.053196 
1230.584608  	0.053422 
1232.513424  	0.053532 
1234.442240  	0.053250 
1236.371056  	0.052555 
1238.299872  	0.051826 
1240.228688  	0.051257 
1242.157504  	0.050228 
1244.086320  	0.048785 
1246.015136  	0.047381 
1247.943952  	0.045809 
1249.872768  	0.043966 
1251.801584  	0.042069 
1253.730400  	0.040285 
1255.659216  	0.038627 
1257.588032  	0.036839 
1259.516848  	0.035083 
1261.445664  	0.033578 
1263.374480  	0.032156 
1265.303296  	0.030763 
1267.232112  	0.029640 
1269.160928  	0.028705 
1271.089744  	0.027932 
1273.018560  	0.027611 
1274.947376  	0.027556 
1276.876192  	0.027495 
1278.805008  	0.027242 
1280.733824  	0.026656 
1282.662640  	0.025766 
1284.591456  	0.024897 
1286.520272  	0.023923 
1288.449088  	0.023140 
1290.377904  	0.022636 
1292.306720  	0.022081 
1294.235536  	0.021346 
1296.164352  	0.020464 
1298.093168  	0.019455 
1300.021984  	0.018462 
1301.950800  	0.017515 
1303.879616  	0.016684 
1305.808432  	0.016002 
1307.737248  	0.015445 
1309.666064  	0.014970 
1311.594880  	0.014676 
1313.523696  	0.014511 
1315.452512  	0.014364 
1317.381328  	0.014353 
1319.310144  	0.014361 
1321.238960  	0.014392 
1323.167776  	0.014700 
1325.096592  	0.014813 
1327.025408  	0.014830 
1328.954224  	0.014769 
1330.883040  	0.014682 
1332.811856  	0.014453 
1334.740672  	0.014057 
1336.669488  	0.013841 
1338.598304  	0.013676 
1340.527120  	0.013453 
1342.455936  	0.013344 
1344.384752  	0.013342 
1346.313568  	0.013447 
1348.242384  	0.013760 
1350.171200  	0.014148 
1352.100016  	0.014654 
1354.028832  	0.015196 
1355.957648  	0.015819 
1357.886464  	0.016401 
1359.815280  	0.016882 
1361.744096  	0.017483 
1363.672912  	0.018003 
1365.601728  	0.018298 
1367.530544  	0.018541 
1369.459360  	0.018775 
1371.388176  	0.018749 
1373.316992  	0.018631 
1375.245808  	0.018344 
1377.174624  	0.017779 
1379.103440  	0.017255 
1381.032256  	0.016840 
1382.961072  	0.016513 
1384.889888  	0.016193 
1386.818704  	0.015971 
1388.747520  	0.015642 
1390.676336  	0.015286 
1392.605152  	0.015233 
1394.533968  	0.015267 
1396.462784  	0.014967 
1398.391600  	0.015018 
1400.320416  	0.015340 
1402.249232  	0.015441 
1404.178048  	0.015915 
1406.106864  	0.016368 
1408.035680  	0.016601 
1409.964496  	0.016892 
1411.893312  	0.017330 
1413.822128  	0.017657 
1415.750944  	0.017884 
1417.679760  	0.018008 
1419.608576  	0.018119 
1421.537392  	0.017751 
1423.466208  	0.017375 
1425.395024  	0.016914 
1427.323840  	0.016335 
1429.252656  	0.015958 
1431.181472  	0.015686 
1433.110288  	0.015445 
1435.039104  	0.015377 
1436.967920  	0.015697 
1438.896736  	0.015709 
1440.825552  	0.015600 
1442.754368  	0.015581 
1444.683184  	0.015542 
1446.612000  	0.015670 
1448.540816  	0.015957 
1450.469632  	0.015993 
1452.398448  	0.016083 
1454.327264  	0.016201 
1456.256080  	0.016384 
1458.184896  	0.016706 
1460.113712  	0.016429 
1462.042528  	0.016254 
1463.971344  	0.016489 
1465.900160  	0.017086 
1467.828976  	0.017463 
1469.757792  	0.018087 
1471.686608  	0.019123 
1473.615424  	0.020601 
1475.544240  	0.021293 
1477.473056  	0.021961 
1479.401872  	0.022295 
1481.330688  	0.022541 
1483.259504  	0.022482 
1485.188320  	0.022321 
1487.117136  	0.022159 
1489.045952  	0.021890 
1490.974768  	0.021081 
1492.903584  	0.020045 
1494.832400  	0.019109 
1496.761216  	0.018261 
1498.690032  	0.017259 
1500.618848  	0.016317 
1502.547664  	0.015559 
1504.476480  	0.015090 
1506.405296  	0.015069 
1508.334112  	0.014735 
1510.262928  	0.014027 
1512.191744  	0.013609 
1514.120560  	0.013235 
1516.049376  	0.013261 
1517.978192  	0.013438 
1519.907008  	0.013518 
1521.835824  	0.014452 
1523.764640  	0.015055 
1525.693456  	0.015474 
1527.622272  	0.015953 
1529.551088  	0.016163 
1531.479904  	0.016352 
1533.408720  	0.016545 
1535.337536  	0.016092 
1537.266352  	0.015464 
1539.195168  	0.015166 
1541.123984  	0.014931 
1543.052800  	0.014242 
1544.981616  	0.013446 
1546.910432  	0.012961 
1548.839248  	0.012743 
1550.768064  	0.012752 
1552.696880  	0.012651 
1554.625696  	0.012987 
1556.554512  	0.013052 
1558.483328  	0.014025 
1560.412144  	0.014892 
1562.340960  	0.014776 
1564.269776  	0.015328 
1566.198592  	0.016354 
1568.127408  	0.016986 
1570.056224  	0.018423 
1571.985040  	0.019318 
1573.913856  	0.019876 
1575.842672  	0.020644 
1577.771488  	0.021190 
1579.700304  	0.020957 
1581.629120  	0.020902 
1583.557936  	0.020922 
1585.486752  	0.021241 
1587.415568  	0.021865 
1589.344384  	0.022966 
1591.273200  	0.024108 
1593.202016  	0.025557 
1595.130832  	0.027059 
1597.059648  	0.028471 
1598.988464  	0.029411 
1600.917280  	0.030282 
1602.846096  	0.030938 
1604.774912  	0.031329 
1606.703728  	0.031350 
1608.632544  	0.031197 
1610.561360  	0.030870 
1612.490176  	0.030789 
1614.418992  	0.030626 
1616.347808  	0.031214 
1618.276624  	0.032105 
1620.205440  	0.032704 
1622.134256  	0.033725 
1624.063072  	0.035880 
1625.991888  	0.037397 
1627.920704  	0.039398 
1629.849520  	0.041549 
1631.778336  	0.043350 
1633.707152  	0.044960 
1635.635968  	0.048142 
1637.564784  	0.050520 
1639.493600  	0.051617 
1641.422416  	0.052940 
1643.351232  	0.054001 
1645.280048  	0.054905 
1647.208864  	0.056674 
1649.137680  	0.056836 
1651.066496  	0.056261 
1652.995312  	0.057188 
1654.924128  	0.057898 
1656.852944  	0.056724 
1658.781760  	0.056162 
1660.710576  	0.055781 
1662.639392  	0.055833 
1664.568208  	0.055521 
1666.497024  	0.054805 
1668.425840  	0.054574 
1670.354656  	0.054781 
1672.283472  	0.054291 
1674.212288  	0.054005 
1676.141104  	0.054639 
1678.069920  	0.054685 
1679.998736  	0.054806 
1681.927552  	0.054892 
1683.856368  	0.055552 
1685.785184  	0.056717 
1687.714000  	0.056364 
1689.642816  	0.056288 
1691.571632  	0.055926 
1693.500448  	0.055314 
1695.429264  	0.054950 
1697.358080  	0.054529 
1699.286896  	0.053339 
1701.215712  	0.052624 
1703.144528  	0.050921 
1705.073344  	0.049459 
1707.002160  	0.047881 
1708.930976  	0.045939 
1710.859792  	0.044032 
1712.788608  	0.042080 
1714.717424  	0.040007 
1716.646240  	0.037805 
1718.575056  	0.035468 
1720.503872  	0.032841 
1722.432688  	0.030667 
1724.361504  	0.028388 
1726.290320  	0.026066 
1728.219136  	0.023855 
1730.147952  	0.021904 
1732.076768  	0.020114 
1734.005584  	0.018515 
1735.934400  	0.016399 
1737.863216  	0.014964 
1739.792032  	0.013654 
1741.720848  	0.012473 
1743.649664  	0.011512 
1745.578480  	0.010649 
1747.507296  	0.009886 
1749.436112  	0.009303 
1751.364928  	0.008756 
1753.293744  	0.008299 
1755.222560  	0.007771 
1757.151376  	0.007554 
1759.080192  	0.007130 
1761.009008  	0.007017 
1762.937824  	0.006847 
1764.866640  	0.006494 
1766.795456  	0.006231 
1768.724272  	0.006240 
1770.653088  	0.006031 
1772.581904  	0.006058 
1774.510720  	0.005759 
1776.439536  	0.005647 
1778.368352  	0.005531 
1780.297168  	0.005604 
1782.225984  	0.005505 
1784.154800  	0.005437 
1786.083616  	0.005380 
1788.012432  	0.005278 
1789.941248  	0.005137 
1791.870064  	0.005482 
1793.798880  	0.005264 
1795.727696  	0.005046 
1797.656512  	0.004769 
1799.585328  	0.004656 
1801.514144  	0.004877 
1803.442960  	0.005024 
1805.371776  	0.004656 
1807.300592  	0.004631 
1809.229408  	0.004681 
1811.158224  	0.004653 
1813.087040  	0.004521 
1815.015856  	0.004268 
1816.944672  	0.004158 
1818.873488  	0.004425 
1820.802304  	0.004575 
1822.731120  	0.004727 
1824.659936  	0.004845 
1826.588752  	0.004901 
1828.517568  	0.004807 
1830.446384  	0.004827 
1832.375200  	0.004496 
1834.304016  	0.004541 
1836.232832  	0.004591 
1838.161648  	0.004676 
1840.090464  	0.004540 
1842.019280  	0.004314 
1843.948096  	0.004299 
1845.876912  	0.004511 
1847.805728  	0.004315 
1849.734544  	0.004306 
1851.663360  	0.004081 
1853.592176  	0.004170 
1855.520992  	0.004107 
1857.449808  	0.004157 
1859.378624  	0.004015 
1861.307440  	0.003926 
1863.236256  	0.004142 
1865.165072  	0.004388 
1867.093888  	0.004532 
1869.022704  	0.004645 
1870.951520  	0.004103 
1872.880336  	0.003878 
1874.809152  	0.004138 
1876.737968  	0.004277 
1878.666784  	0.004510 
1880.595600  	0.004744 
1882.524416  	0.004412 
1884.453232  	0.004503 
1886.382048  	0.004360 
1888.310864  	0.004025 
1890.239680  	0.003827 
1892.168496  	0.003816 
1894.097312  	0.004043 
1896.026128  	0.004359 
1897.954944  	0.003977 
1899.883760  	0.004043 
1901.812576  	0.004038 
1903.741392  	0.004125 
1905.670208  	0.004268 
1907.599024  	0.004240 
1909.527840  	0.004220 
1911.456656  	0.004295 
1913.385472  	0.004510 
1915.314288  	0.004554 
1917.243104  	0.004599 
1919.171920  	0.004313 
1921.100736  	0.003973 
1923.029552  	0.003972 
1924.958368  	0.004014 
1926.887184  	0.004229 
1928.816000  	0.004128 
1930.744816  	0.004472 
1932.673632  	0.004825 
1934.602448  	0.004556 
1936.531264  	0.004226 
1938.460080  	0.004404 
1940.388896  	0.004005 
1942.317712  	0.003797 
1944.246528  	0.003296 
1946.175344  	0.003135 
1948.104160  	0.003879 
1950.032976  	0.004556 
1951.961792  	0.004092 
1953.890608  	0.003669 
1955.819424  	0.003501 
1957.748240  	0.003829 
1959.677056  	0.003684 
1961.605872  	0.003439 
1963.534688  	0.003831 
1965.463504  	0.003666 
1967.392320  	0.003316 
1969.321136  	0.003497 
1971.249952  	0.003255 
1973.178768  	0.002652 
1975.107584  	0.002435 
1977.036400  	0.004739 
1978.965216  	0.006623 
1980.894032  	0.005653 
1982.822848  	0.004659 
1984.751664  	0.004666 
1986.680480  	0.004351 
1988.609296  	0.004721 
1990.538112  	0.005050 
1992.466928  	0.004780 
1994.395744  	0.003777 
1996.324560  	0.003795 
1998.253376  	0.003981 
2000.182192  	0.004781 
2002.111008  	0.004317 
2004.039824  	0.004039 
2005.968640  	0.004729 
2007.897456  	0.005292 
2009.826272  	0.004696 
2011.755088  	0.004964 
2013.683904  	0.004620 
2015.612720  	0.004101 
2017.541536  	0.004467 
2019.470352  	0.004781 
2021.399168  	0.004806 
2023.327984  	0.005008 
2025.256800  	0.004331 
2027.185616  	0.003727 
2029.114432  	0.004111 
2031.043248  	0.003811 
2032.972064  	0.004558 
2034.900880  	0.006568 
2036.829696  	0.005862 
2038.758512  	0.004681 
2040.687328  	0.003680 
2042.616144  	0.003544 
2044.544960  	0.004186 
2046.473776  	0.005042 
2048.402592  	0.005325 
2050.331408  	0.005291 
2052.260224  	0.004794 
2054.189040  	0.004752 
2056.117856  	0.004416 
2058.046672  	0.003931 
2059.975488  	0.004510 
2061.904304  	0.004665 
2063.833120  	0.004557 
2065.761936  	0.004340 
2067.690752  	0.003500 
2069.619568  	0.003420 
2071.548384  	0.004300 
2073.477200  	0.004767 
2075.406016  	0.004673 
2077.334832  	0.003923 
2079.263648  	0.003868 
2081.192464  	0.004318 
2083.121280  	0.004468 
2085.050096  	0.004496 
2086.978912  	0.004598 
2088.907728  	0.004311 
2090.836544  	0.003865 
2092.765360  	0.003884 
2094.694176  	0.003980 
2096.622992  	0.004055 
2098.551808  	0.004101 
2100.480624  	0.004158 
2102.409440  	0.004249 
2104.338256  	0.004742 
2106.267072  	0.004840 
2108.195888  	0.004972 
2110.124704  	0.004670 
2112.053520  	0.004316 
2113.982336  	0.003909 
2115.911152  	0.003784 
2117.839968  	0.003627 
2119.768784  	0.003591 
2121.697600  	0.003211 
2123.626416  	0.003442 
2125.555232  	0.003516 
2127.484048  	0.003562 
2129.412864  	0.003433 
2131.341680  	0.002881 
2133.270496  	0.002696 
2135.199312  	0.002886 
2137.128128  	0.003296 
2139.056944  	0.003532 
2140.985760  	0.003093 
2142.914576  	0.002922 
2144.843392  	0.002159 
2146.772208  	0.002694 
2148.701024  	0.003187 
2150.629840  	0.002423 
2152.558656  	0.001527 
2154.487472  	0.000955 
2156.416288  	0.001282 
2158.345104  	0.003147 
2160.273920  	0.005254 
2162.202736  	0.005031 
2164.131552  	0.005141 
2166.060368  	0.005442 
2167.989184  	0.004857 
2169.918000  	0.004479 
2171.846816  	0.003990 
2173.775632  	0.004594 
2175.704448  	0.004518 
2177.633264  	0.004143 
2179.562080  	0.003748 
2181.490896  	0.004814 
2183.419712  	0.005408 
2185.348528  	0.004966 
2187.277344  	0.004844 
2189.206160  	0.004628 
2191.134976  	0.004441 
2193.063792  	0.003921 
2194.992608  	0.004216 
2196.921424  	0.004076 
2198.850240  	0.003327 
2200.779056  	0.004419 
2202.707872  	0.005409 
2204.636688  	0.004991 
2206.565504  	0.003857 
2208.494320  	0.003174 
2210.423136  	0.003586 
2212.351952  	0.004406 
2214.280768  	0.004171 
2216.209584  	0.004329 
2218.138400  	0.004547 
2220.067216  	0.004561 
2221.996032  	0.004294 
2223.924848  	0.003992 
2225.853664  	0.004377 
2227.782480  	0.004583 
2229.711296  	0.004223 
2231.640112  	0.004237 
2233.568928  	0.003739 
2235.497744  	0.003426 
2237.426560  	0.003793 
2239.355376  	0.003841 
2241.284192  	0.003663 
2243.213008  	0.004333 
2245.141824  	0.004404 
2247.070640  	0.004068 
2248.999456  	0.003959 
2250.928272  	0.003594 
2252.857088  	0.003620 
2254.785904  	0.004480 
2256.714720  	0.004325 
2258.643536  	0.004135 
2260.572352  	0.004304 
2262.501168  	0.003969 
2264.429984  	0.004073 
2266.358800  	0.004088 
2268.287616  	0.004128 
2270.216432  	0.004238 
2272.145248  	0.004123 
2274.074064  	0.004377 
2276.002880  	0.005000 
2277.931696  	0.004897 
2279.860512  	0.004618 
2281.789328  	0.005112 
2283.718144  	0.005219 
2285.646960  	0.004845 
2287.575776  	0.004661 
2289.504592  	0.004579 
2291.433408  	0.004462 
2293.362224  	0.004352 
2295.291040  	0.004047 
2297.219856  	0.003759 
2299.148672  	0.003501 
2301.077488  	0.003445 
2303.006304  	0.003450 
2304.935120  	0.002960 
2306.863936  	0.002524 
2308.792752  	0.002551 
2310.721568  	0.002396 
2312.650384  	0.002176 
2314.579200  	0.001808 
2316.508016  	0.001195 
2318.436832  	0.000458 
2320.365648  	0.000429 
2322.294464  	0.000685 
2324.223280  	0.000171 
2326.152096  	-0.000983 
2328.080912  	-0.002043 
2330.009728  	-0.002705 
2331.938544  	-0.002703 
2333.867360  	-0.002672 
2335.796176  	-0.002833 
2337.724992  	-0.003378 
2339.653808  	-0.003730 
2341.582624  	-0.004123 
2343.511440  	-0.003950 
2345.440256  	-0.002478 
2347.369072  	-0.000860 
2349.297888  	-0.000629 
2351.226704  	-0.001884 
2353.155520  	-0.003458 
2355.084336  	-0.004731 
2357.013152  	-0.005894 
2358.941968  	-0.006890 
2360.870784  	-0.007078 
2362.799600  	-0.006685 
2364.728416  	-0.005869 
2366.657232  	-0.005117 
2368.586048  	-0.004549 
2370.514864  	-0.003000 
2372.443680  	-0.001586 
2374.372496  	-0.000310 
2376.301312  	0.000647 
2378.230128  	0.001767 
2380.158944  	0.002499 
2382.087760  	0.002977 
2384.016576  	0.003494 
2385.945392  	0.003817 
2387.874208  	0.004014 
2389.803024  	0.004073 
2391.731840  	0.004083 
2393.660656  	0.004439 
2395.589472  	0.004582 
2397.518288  	0.004639 
2399.447104  	0.004652 
2401.375920  	0.004507 
2403.304736  	0.004270 
2405.233552  	0.004466 
2407.162368  	0.004542 
2409.091184  	0.004628 
2411.020000  	0.004634 
2412.948816  	0.004619 
2414.877632  	0.004575 
2416.806448  	0.004668 
2418.735264  	0.004965 
2420.664080  	0.004892 
2422.592896  	0.004747 
2424.521712  	0.004718 
2426.450528  	0.004915 
2428.379344  	0.004937 
2430.308160  	0.004754 
2432.236976  	0.004697 
2434.165792  	0.004775 
2436.094608  	0.004681 
2438.023424  	0.004628 
2439.952240  	0.004919 
2441.881056  	0.004946 
2443.809872  	0.005134 
2445.738688  	0.005351 
2447.667504  	0.005339 
2449.596320  	0.005371 
2451.525136  	0.005185 
2453.453952  	0.005071 
2455.382768  	0.005222 
2457.311584  	0.005298 
2459.240400  	0.005180 
2461.169216  	0.005121 
2463.098032  	0.005200 
2465.026848  	0.005268 
2466.955664  	0.005202 
2468.884480  	0.005122 
2470.813296  	0.005091 
2472.742112  	0.005099 
2474.670928  	0.005199 
2476.599744  	0.005244 
2478.528560  	0.005325 
2480.457376  	0.005391 
2482.386192  	0.005270 
2484.315008  	0.005192 
2486.243824  	0.005108 
2488.172640  	0.005252 
2490.101456  	0.005561 
2492.030272  	0.005445 
2493.959088  	0.005292 
2495.887904  	0.005606 
2497.816720  	0.005809 
2499.745536  	0.005574 
2501.674352  	0.005529 
2503.603168  	0.005660 
2505.531984  	0.005529 
2507.460800  	0.005517 
2509.389616  	0.005860 
2511.318432  	0.005899 
2513.247248  	0.005647 
2515.176064  	0.005611 
2517.104880  	0.005528 
2519.033696  	0.005620 
2520.962512  	0.005688 
2522.891328  	0.005601 
2524.820144  	0.005792 
2526.748960  	0.005869 
2528.677776  	0.005822 
2530.606592  	0.005679 
2532.535408  	0.005732 
2534.464224  	0.005859 
2536.393040  	0.005914 
2538.321856  	0.005948 
2540.250672  	0.005915 
2542.179488  	0.006061 
2544.108304  	0.006255 
2546.037120  	0.006148 
2547.965936  	0.006062 
2549.894752  	0.006117 
2551.823568  	0.006221 
2553.752384  	0.006172 
2555.681200  	0.006194 
2557.610016  	0.006317 
2559.538832  	0.006485 
2561.467648  	0.006375 
2563.396464  	0.006234 
2565.325280  	0.006477 
2567.254096  	0.006690 
2569.182912  	0.006670 
2571.111728  	0.006566 
2573.040544  	0.006500 
2574.969360  	0.006496 
2576.898176  	0.006408 
2578.826992  	0.006610 
2580.755808  	0.006755 
2582.684624  	0.006768 
2584.613440  	0.006932 
2586.542256  	0.006889 
2588.471072  	0.006848 
2590.399888  	0.007001 
2592.328704  	0.006725 
2594.257520  	0.006679 
2596.186336  	0.006812 
2598.115152  	0.006985 
2600.043968  	0.007218 
2601.972784  	0.007155 
2603.901600  	0.007115 
2605.830416  	0.007242 
2607.759232  	0.007227 
2609.688048  	0.007234 
2611.616864  	0.007248 
2613.545680  	0.007292 
2615.474496  	0.007407 
2617.403312  	0.007421 
2619.332128  	0.007368 
2621.260944  	0.007404 
2623.189760  	0.007508 
2625.118576  	0.007594 
2627.047392  	0.007738 
2628.976208  	0.007805 
2630.905024  	0.007787 
2632.833840  	0.007895 
2634.762656  	0.007949 
2636.691472  	0.008077 
2638.620288  	0.008175 
2640.549104  	0.008251 
2642.477920  	0.008347 
2644.406736  	0.008343 
2646.335552  	0.008397 
2648.264368  	0.008393 
2650.193184  	0.008499 
2652.122000  	0.008692 
2654.050816  	0.008620 
2655.979632  	0.008494 
2657.908448  	0.008437 
2659.837264  	0.008499 
2661.766080  	0.008491 
2663.694896  	0.008431 
2665.623712  	0.008358 
2667.552528  	0.008332 
2669.481344  	0.008346 
2671.410160  	0.008395 
2673.338976  	0.008466 
2675.267792  	0.008429 
2677.196608  	0.008499 
2679.125424  	0.008613 
2681.054240  	0.008658 
2682.983056  	0.008812 
2684.911872  	0.008800 
2686.840688  	0.008696 
2688.769504  	0.008719 
2690.698320  	0.008771 
2692.627136  	0.008906 
2694.555952  	0.008987 
2696.484768  	0.008978 
2698.413584  	0.008921 
2700.342400  	0.008908 
2702.271216  	0.008977 
2704.200032  	0.009014 
2706.128848  	0.009078 
2708.057664  	0.009170 
2709.986480  	0.009268 
2711.915296  	0.009329 
2713.844112  	0.009469 
2715.772928  	0.009478 
2717.701744  	0.009536 
2719.630560  	0.009573 
2721.559376  	0.009643 
2723.488192  	0.009763 
2725.417008  	0.009852 
2727.345824  	0.009831 
2729.274640  	0.009845 
2731.203456  	0.009841 
2733.132272  	0.009893 
2735.061088  	0.009996 
2736.989904  	0.010021 
2738.918720  	0.010005 
2740.847536  	0.010088 
2742.776352  	0.010169 
2744.705168  	0.010297 
2746.633984  	0.010312 
2748.562800  	0.010294 
2750.491616  	0.010383 
2752.420432  	0.010301 
2754.349248  	0.010229 
2756.278064  	0.010326 
2758.206880  	0.010422 
2760.135696  	0.010488 
2762.064512  	0.010527 
2763.993328  	0.010533 
2765.922144  	0.010587 
2767.850960  	0.010595 
2769.779776  	0.010638 
2771.708592  	0.010740 
2773.637408  	0.010775 
2775.566224  	0.010737 
2777.495040  	0.010811 
2779.423856  	0.010971 
2781.352672  	0.011002 
2783.281488  	0.011024 
2785.210304  	0.011091 
2787.139120  	0.011075 
2789.067936  	0.011017 
2790.996752  	0.011127 
2792.925568  	0.011220 
2794.854384  	0.011258 
2796.783200  	0.011295 
2798.712016  	0.011331 
2800.640832  	0.011483 
2802.569648  	0.011508 
2804.498464  	0.011585 
2806.427280  	0.011594 
2808.356096  	0.011584 
2810.284912  	0.011614 
2812.213728  	0.011670 
2814.142544  	0.011857 
2816.071360  	0.011925 
2818.000176  	0.011849 
2819.928992  	0.011861 
2821.857808  	0.012016 
2823.786624  	0.012104 
2825.715440  	0.012184 
2827.644256  	0.012192 
2829.573072  	0.012149 
2831.501888  	0.012214 
2833.430704  	0.012224 
2835.359520  	0.012190 
2837.288336  	0.012200 
2839.217152  	0.012077 
2841.145968  	0.012091 
2843.074784  	0.012224 
2845.003600  	0.012373 
2846.932416  	0.012615 
2848.861232  	0.012800 
2850.790048  	0.012729 
2852.718864  	0.012648 
2854.647680  	0.012782 
2856.576496  	0.013060 
2858.505312  	0.013186 
2860.434128  	0.013284 
2862.362944  	0.013380 
2864.291760  	0.013455 
2866.220576  	0.013600 
2868.149392  	0.013684 
2870.078208  	0.013858 
2872.007024  	0.014203 
2873.935840  	0.014352 
2875.864656  	0.014464 
2877.793472  	0.014694 
2879.722288  	0.015062 
2881.651104  	0.015479 
2883.579920  	0.015583 
2885.508736  	0.015547 
2887.437552  	0.015660 
2889.366368  	0.015879 
2891.295184  	0.015968 
2893.224000  	0.016022 
2895.152816  	0.016030 
2897.081632  	0.016086 
2899.010448  	0.016337 
2900.939264  	0.016576 
2902.868080  	0.016489 
2904.796896  	0.016315 
2906.725712  	0.016398 
2908.654528  	0.016612 
2910.583344  	0.016719 
2912.512160  	0.016737 
2914.440976  	0.016909 
2916.369792  	0.017194 
2918.298608  	0.017298 
2920.227424  	0.017431 
2922.156240  	0.017508 
2924.085056  	0.017668 
2926.013872  	0.017855 
2927.942688  	0.018013 
2929.871504  	0.018188 
2931.800320  	0.018511 
2933.729136  	0.018720 
2935.657952  	0.018705 
2937.586768  	0.018800 
2939.515584  	0.018964 
2941.444400  	0.019051 
2943.373216  	0.019091 
2945.302032  	0.019129 
2947.230848  	0.019277 
2949.159664  	0.019461 
2951.088480  	0.019616 
2953.017296  	0.019685 
2954.946112  	0.019683 
2956.874928  	0.019714 
2958.803744  	0.019743 
2960.732560  	0.019792 
2962.661376  	0.019807 
2964.590192  	0.019870 
2966.519008  	0.019936 
2968.447824  	0.019886 
2970.376640  	0.020012 
2972.305456  	0.020027 
2974.234272  	0.019761 
2976.163088  	0.019605 
2978.091904  	0.019440 
2980.020720  	0.019376 
2981.949536  	0.019458 
2983.878352  	0.019617 
2985.807168  	0.019654 
2987.735984  	0.019534 
2989.664800  	0.019437 
2991.593616  	0.019119 
2993.522432  	0.019054 
2995.451248  	0.018995 
2997.380064  	0.018880 
2999.308880  	0.018907 
3001.237696  	0.018795 
3003.166512  	0.018622 
3005.095328  	0.018604 
3007.024144  	0.018498 
3008.952960  	0.018325 
3010.881776  	0.018275 
3012.810592  	0.018289 
3014.739408  	0.018438 
3016.668224  	0.018314 
3018.597040  	0.018102 
3020.525856  	0.017982 
3022.454672  	0.017919 
3024.383488  	0.017970 
3026.312304  	0.017923 
3028.241120  	0.017838 
3030.169936  	0.017873 
3032.098752  	0.018047 
3034.027568  	0.018165 
3035.956384  	0.018170 
3037.885200  	0.018191 
3039.814016  	0.018307 
3041.742832  	0.018269 
3043.671648  	0.018191 
3045.600464  	0.018396 
3047.529280  	0.018652 
3049.458096  	0.018593 
3051.386912  	0.018319 
3053.315728  	0.018313 
3055.244544  	0.018624 
3057.173360  	0.019007 
3059.102176  	0.019084 
3061.030992  	0.019093 
3062.959808  	0.019272 
3064.888624  	0.019508 
3066.817440  	0.019804 
3068.746256  	0.019933 
3070.675072  	0.020047 
3072.603888  	0.020196 
3074.532704  	0.020234 
3076.461520  	0.020264 
3078.390336  	0.020380 
3080.319152  	0.020592 
3082.247968  	0.020820 
3084.176784  	0.021012 
3086.105600  	0.021149 
3088.034416  	0.021270 
3089.963232  	0.021380 
3091.892048  	0.021495 
3093.820864  	0.021546 
3095.749680  	0.021571 
3097.678496  	0.021674 
3099.607312  	0.021930 
3101.536128  	0.022193 
3103.464944  	0.022307 
3105.393760  	0.022405 
3107.322576  	0.022573 
3109.251392  	0.022782 
3111.180208  	0.022870 
3113.109024  	0.023169 
3115.037840  	0.023336 
3116.966656  	0.023366 
3118.895472  	0.023542 
3120.824288  	0.023647 
3122.753104  	0.023707 
3124.681920  	0.023899 
3126.610736  	0.024023 
3128.539552  	0.024065 
3130.468368  	0.024173 
3132.397184  	0.024325 
3134.326000  	0.024564 
3136.254816  	0.024570 
3138.183632  	0.024553 
3140.112448  	0.024583 
3142.041264  	0.024828 
3143.970080  	0.024971 
3145.898896  	0.025083 
3147.827712  	0.025196 
3149.756528  	0.025184 
3151.685344  	0.025280 
3153.614160  	0.025449 
3155.542976  	0.025586 
3157.471792  	0.025725 
3159.400608  	0.025924 
3161.329424  	0.026068 
3163.258240  	0.026016 
3165.187056  	0.026200 
3167.115872  	0.026468 
3169.044688  	0.026736 
3170.973504  	0.026637 
3172.902320  	0.026750 
3174.831136  	0.027049 
3176.759952  	0.027046 
3178.688768  	0.026889 
3180.617584  	0.027101 
3182.546400  	0.027380 
3184.475216  	0.027591 
3186.404032  	0.027773 
3188.332848  	0.027771 
3190.261664  	0.027570 
3192.190480  	0.027505 
3194.119296  	0.027777 
3196.048112  	0.027935 
3197.976928  	0.028000 
3199.905744  	0.027794 
3201.834560  	0.027735 
3203.763376  	0.027933 
3205.692192  	0.027914 
3207.621008  	0.027948 
3209.549824  	0.027931 
3211.478640  	0.027823 
3213.407456  	0.027968 
3215.336272  	0.028028 
3217.265088  	0.027966 
3219.193904  	0.027795 
3221.122720  	0.027826 
3223.051536  	0.027693 
3224.980352  	0.027525 
3226.909168  	0.027491 
3228.837984  	0.027661 
3230.766800  	0.027679 
3232.695616  	0.027408 
3234.624432  	0.027316 
3236.553248  	0.027383 
3238.482064  	0.027558 
3240.410880  	0.027514 
3242.339696  	0.027342 
3244.268512  	0.027287 
3246.197328  	0.027290 
3248.126144  	0.027180 
3250.054960  	0.027348 
3251.983776  	0.027310 
3253.912592  	0.027369 
3255.841408  	0.027393 
3257.770224  	0.027221 
3259.699040  	0.027367 
3261.627856  	0.027485 
3263.556672  	0.027579 
3265.485488  	0.027832 
3267.414304  	0.027690 
3269.343120  	0.027558 
3271.271936  	0.027644 
3273.200752  	0.027749 
3275.129568  	0.028028 
3277.058384  	0.028153 
3278.987200  	0.028129 
3280.916016  	0.028035 
3282.844832  	0.027966 
3284.773648  	0.028153 
3286.702464  	0.028333 
3288.631280  	0.028291 
3290.560096  	0.028258 
3292.488912  	0.028382 
3294.417728  	0.028640 
3296.346544  	0.028798 
3298.275360  	0.028718 
3300.204176  	0.028806 
3302.132992  	0.029179 
3304.061808  	0.029472 
3305.990624  	0.029533 
3307.919440  	0.029623 
3309.848256  	0.029801 
3311.777072  	0.029782 
3313.705888  	0.029722 
3315.634704  	0.029953 
3317.563520  	0.030236 
3319.492336  	0.030446 
3321.421152  	0.030433 
3323.349968  	0.030352 
3325.278784  	0.030360 
3327.207600  	0.030611 
3329.136416  	0.030613 
3331.065232  	0.030563 
3332.994048  	0.030643 
3334.922864  	0.030659 
3336.851680  	0.030769 
3338.780496  	0.030909 
3340.709312  	0.030986 
3342.638128  	0.031048 
3344.566944  	0.030905 
3346.495760  	0.030906 
3348.424576  	0.030773 
3350.353392  	0.030743 
3352.282208  	0.030514 
3354.211024  	0.030334 
3356.139840  	0.030320 
3358.068656  	0.030459 
3359.997472  	0.030568 
3361.926288  	0.030500 
3363.855104  	0.030343 
3365.783920  	0.030407 
3367.712736  	0.030212 
3369.641552  	0.030019 
3371.570368  	0.029938 
3373.499184  	0.029846 
3375.428000  	0.029786 
3377.356816  	0.029614 
3379.285632  	0.029265 
3381.214448  	0.028970 
3383.143264  	0.028777 
3385.072080  	0.028699 
3387.000896  	0.028678 
3388.929712  	0.028690 
3390.858528  	0.028490 
3392.787344  	0.028348 
3394.716160  	0.028367 
3396.644976  	0.028430 
3398.573792  	0.028319 
3400.502608  	0.028231 
3402.431424  	0.028117 
3404.360240  	0.028032 
3406.289056  	0.027786 
3408.217872  	0.027613 
3410.146688  	0.027581 
3412.075504  	0.027516 
3414.004320  	0.027331 
3415.933136  	0.027236 
3417.861952  	0.026959 
3419.790768  	0.026920 
3421.719584  	0.027017 
3423.648400  	0.026744 
3425.577216  	0.026560 
3427.506032  	0.026481 
3429.434848  	0.026345 
3431.363664  	0.026115 
3433.292480  	0.025971 
3435.221296  	0.025842 
3437.150112  	0.025701 
3439.078928  	0.025715 
3441.007744  	0.025729 
3442.936560  	0.025561 
3444.865376  	0.025133 
3446.794192  	0.024903 
3448.723008  	0.024954 
3450.651824  	0.024873 
3452.580640  	0.024583 
3454.509456  	0.024428 
3456.438272  	0.024231 
3458.367088  	0.023891 
3460.295904  	0.023695 
3462.224720  	0.023645 
3464.153536  	0.023439 
3466.082352  	0.023013 
3468.011168  	0.022695 
3469.939984  	0.022643 
3471.868800  	0.022561 
3473.797616  	0.022353 
3475.726432  	0.022151 
3477.655248  	0.022007 
3479.584064  	0.021988 
3481.512880  	0.021689 
3483.441696  	0.021216 
3485.370512  	0.020990 
3487.299328  	0.020991 
3489.228144  	0.020792 
3491.156960  	0.020405 
3493.085776  	0.020142 
3495.014592  	0.020031 
3496.943408  	0.019743 
3498.872224  	0.019560 
3500.801040  	0.019370 
3502.729856  	0.019253 
3504.658672  	0.019238 
3506.587488  	0.018983 
3508.516304  	0.018404 
3510.445120  	0.018100 
3512.373936  	0.018249 
3514.302752  	0.017988 
3516.231568  	0.017719 
3518.160384  	0.017660 
3520.089200  	0.017755 
3522.018016  	0.017629 
3523.946832  	0.017243 
3525.875648  	0.016909 
3527.804464  	0.016877 
3529.733280  	0.016645 
3531.662096  	0.016237 
3533.590912  	0.016098 
3535.519728  	0.016101 
3537.448544  	0.015928 
3539.377360  	0.015678 
3541.306176  	0.015632 
3543.234992  	0.015759 
3545.163808  	0.015751 
3547.092624  	0.015556 
3549.021440  	0.015131 
3550.950256  	0.014739 
3552.879072  	0.014478 
3554.807888  	0.014441 
3556.736704  	0.014473 
3558.665520  	0.014227 
3560.594336  	0.013968 
3562.523152  	0.013964 
3564.451968  	0.013765 
3566.380784  	0.013643 
3568.309600  	0.013453 
3570.238416  	0.013081 
3572.167232  	0.012784 
3574.096048  	0.012560 
3576.024864  	0.012495 
3577.953680  	0.012437 
3579.882496  	0.012147 
3581.811312  	0.011908 
3583.740128  	0.011853 
3585.668944  	0.011692 
3587.597760  	0.011660 
3589.526576  	0.011522 
3591.455392  	0.010952 
3593.384208  	0.010800 
3595.313024  	0.010717 
3597.241840  	0.010669 
3599.170656  	0.010375 
3601.099472  	0.010267 
3603.028288  	0.010029 
3604.957104  	0.009620 
3606.885920  	0.009345 
3608.814736  	0.009107 
3610.743552  	0.009079 
3612.672368  	0.009029 
3614.601184  	0.008719 
3616.530000  	0.008446 
3618.458816  	0.008096 
3620.387632  	0.007904 
3622.316448  	0.007520 
3624.245264  	0.007369 
3626.174080  	0.007095 
3628.102896  	0.006811 
3630.031712  	0.006964 
3631.960528  	0.006604 
3633.889344  	0.006629 
3635.818160  	0.006594 
3637.746976  	0.006499 
3639.675792  	0.006177 
3641.604608  	0.005917 
3643.533424  	0.005732 
3645.462240  	0.005530 
3647.391056  	0.005563 
3649.319872  	0.005682 
3651.248688  	0.005613 
3653.177504  	0.005291 
3655.106320  	0.005152 
3657.035136  	0.004997 
3658.963952  	0.004973 
3660.892768  	0.004786 
3662.821584  	0.004734 
3664.750400  	0.004824 
3666.679216  	0.004517 
3668.608032  	0.004209 
3670.536848  	0.004345 
3672.465664  	0.004350 
3674.394480  	0.004432 
3676.323296  	0.004587 
3678.252112  	0.004306 
3680.180928  	0.004154 
3682.109744  	0.003851 
3684.038560  	0.003746 
3685.967376  	0.003837 
3687.896192  	0.003941 
3689.825008  	0.003733 
3691.753824  	0.003426 
3693.682640  	0.003138 
3695.611456  	0.002993 
3697.540272  	0.003048 
3699.469088  	0.003060 
3701.397904  	0.003103 
3703.326720  	0.002881 
3705.255536  	0.002727 
3707.184352  	0.002525 
3709.113168  	0.002347 
3711.041984  	0.002475 
3712.970800  	0.002587 
3714.899616  	0.002668 
3716.828432  	0.002750 
3718.757248  	0.002717 
3720.686064  	0.002728 
3722.614880  	0.002691 
3724.543696  	0.002423 
3726.472512  	0.002307 
3728.401328  	0.002301 
3730.330144  	0.002223 
3732.258960  	0.002317 
3734.187776  	0.002332 
3736.116592  	0.002519 
3738.045408  	0.002473 
3739.974224  	0.002438 
3741.903040  	0.002500 
3743.831856  	0.002755 
3745.760672  	0.002829 
3747.689488  	0.002614 
3749.618304  	0.002889 
3751.547120  	0.003120 
3753.475936  	0.002945 
3755.404752  	0.002668 
3757.333568  	0.002582 
3759.262384  	0.002591 
3761.191200  	0.002676 
3763.120016  	0.002765 
3765.048832  	0.002834 
3766.977648  	0.002601 
3768.906464  	0.002791 
3770.835280  	0.003247 
3772.764096  	0.003052 
3774.692912  	0.002779 
3776.621728  	0.002617 
3778.550544  	0.002750 
3780.479360  	0.002837 
3782.408176  	0.002677 
3784.336992  	0.002801 
3786.265808  	0.002887 
3788.194624  	0.002785 
3790.123440  	0.002809 
3792.052256  	0.002976 
3793.981072  	0.003149 
3795.909888  	0.003123 
3797.838704  	0.002798 
3799.767520  	0.002466 
3801.696336  	0.002800 
3803.625152  	0.002866 
3805.553968  	0.002839 
3807.482784  	0.003098 
3809.411600  	0.002944 
3811.340416  	0.002708 
3813.269232  	0.002622 
3815.198048  	0.002714 
3817.126864  	0.002752 
3819.055680  	0.002760 
3820.984496  	0.003053 
3822.913312  	0.002865 
3824.842128  	0.002656 
3826.770944  	0.002783 
3828.699760  	0.002597 
3830.628576  	0.002331 
3832.557392  	0.002331 
3834.486208  	0.002567 
3836.415024  	0.002755 
3838.343840  	0.002865 
3840.272656  	0.002797 
3842.201472  	0.002805 
3844.130288  	0.002951 
3846.059104  	0.002904 
3847.987920  	0.002800 
3849.916736  	0.002853 
3851.845552  	0.003051 
3853.774368  	0.003042 
3855.703184  	0.002772 
3857.632000  	0.002708 
3859.560816  	0.002519 
3861.489632  	0.002535 
3863.418448  	0.002678 
3865.347264  	0.002835 
3867.276080  	0.002846 
3869.204896  	0.003003 
3871.133712  	0.002988 
3873.062528  	0.002913 
3874.991344  	0.002954 
3876.920160  	0.002733 
3878.848976  	0.002756 
3880.777792  	0.002946 
3882.706608  	0.002753 
3884.635424  	0.002601 
3886.564240  	0.002864 
3888.493056  	0.002811 
3890.421872  	0.002864 
3892.350688  	0.002778 
3894.279504  	0.002588 
3896.208320  	0.002528 
3898.137136  	0.002730 
3900.065952  	0.003124 
3901.994768  	0.002953 
3903.923584  	0.002744 
3905.852400  	0.002759 
3907.781216  	0.002787 
3909.710032  	0.002826 
3911.638848  	0.002926 
3913.567664  	0.002901 
3915.496480  	0.002820 
3917.425296  	0.002735 
3919.354112  	0.002796 
3921.282928  	0.002933 
3923.211744  	0.002857 
3925.140560  	0.002814 
3927.069376  	0.002921 
3928.998192  	0.002942 
3930.927008  	0.002894 
3932.855824  	0.002821 
3934.784640  	0.002736 
3936.713456  	0.002826 
3938.642272  	0.002821 
3940.571088  	0.002727 
3942.499904  	0.002686 
3944.428720  	0.002773 
3946.357536  	0.002778 
3948.286352  	0.002748 
3950.215168  	0.002856 
3952.143984  	0.002885 
3954.072800  	0.002780 
3956.001616  	0.002788 
3957.930432  	0.002857 
3959.859248  	0.003063 
3961.788064  	0.003042 
3963.716880  	0.002860 
3965.645696  	0.002658 
3967.574512  	0.002786 
3969.503328  	0.002881 
3971.432144  	0.002878 
3973.360960  	0.002916 
3975.289776  	0.002765 
3977.218592  	0.002634 
3979.147408  	0.002766 
3981.076224  	0.002966 
3983.005040  	0.002934 
3984.933856  	0.002877 
3986.862672  	0.002931 
3988.791488  	0.002963 
3990.720304  	0.003095 
3992.649120  	0.003007 
3994.577936  	0.002844 
3996.506752  	0.002966 
3998.435568  	0.003064 
4000.364384  	0.002871 