##TITLE=No Description
##DATA TYPE=INFRARED SPECTRUM
##XUNITS=1/CM
##YUNITS=Abs
399.264912  	0.628075 
401.193728  	0.619530 
403.122544  	0.613476 
405.051360  	0.596857 
406.980176  	0.584608 
408.908992  	0.567987 
410.837808  	0.579473 
412.766624  	0.583161 
414.695440  	0.587155 
416.624256  	0.575202 
418.553072  	0.560786 
420.481888  	0.544342 
422.410704  	0.554986 
424.339520  	0.555157 
426.268336  	0.554403 
428.197152  	0.541888 
430.125968  	0.539392 
432.054784  	0.532737 
433.983600  	0.528712 
435.912416  	0.523799 
437.841232  	0.525173 
439.770048  	0.526375 
441.698864  	0.529902 
443.627680  	0.528036 
445.556496  	0.527846 
447.485312  	0.523773 
449.414128  	0.520361 
451.342944  	0.519977 
453.271760  	0.521759 
455.200576  	0.514633 
457.129392  	0.512491 
459.058208  	0.509770 
460.987024  	0.513865 
462.915840  	0.513447 
464.844656  	0.517829 
466.773472  	0.519723 
468.702288  	0.523068 
470.631104  	0.521744 
472.559920  	0.521491 
474.488736  	0.516386 
476.417552  	0.516027 
478.346368  	0.512301 
480.275184  	0.513729 
482.204000  	0.513233 
484.132816  	0.511574 
486.061632  	0.508465 
487.990448  	0.511459 
489.919264  	0.512311 
491.848080  	0.510260 
493.776896  	0.506592 
495.705712  	0.507725 
497.634528  	0.504480 
499.563344  	0.501623 
501.492160  	0.498227 
503.420976  	0.499009 
505.349792  	0.500298 
507.278608  	0.503439 
509.207424  	0.500372 
511.136240  	0.502158 
513.065056  	0.503022 
514.993872  	0.503450 
516.922688  	0.503981 
518.851504  	0.506543 
520.780320  	0.504285 
522.709136  	0.504315 
524.637952  	0.504006 
526.566768  	0.501127 
528.495584  	0.498358 
530.424400  	0.498525 
532.353216  	0.493791 
534.282032  	0.488252 
536.210848  	0.483001 
538.139664  	0.479763 
540.068480  	0.474924 
541.997296  	0.472237 
543.926112  	0.467385 
545.854928  	0.462934 
547.783744  	0.458568 
549.712560  	0.454850 
551.641376  	0.449577 
553.570192  	0.446102 
555.499008  	0.443573 
557.427824  	0.441081 
559.356640  	0.436481 
561.285456  	0.434194 
563.214272  	0.431054 
565.143088  	0.427325 
567.071904  	0.423063 
569.000720  	0.418946 
570.929536  	0.414107 
572.858352  	0.412089 
574.787168  	0.409812 
576.715984  	0.406503 
578.644800  	0.402742 
580.573616  	0.399918 
582.502432  	0.394908 
584.431248  	0.391906 
586.360064  	0.389320 
588.288880  	0.386739 
590.217696  	0.383753 
592.146512  	0.382358 
594.075328  	0.379963 
596.004144  	0.377423 
597.932960  	0.375721 
599.861776  	0.375617 
601.790592  	0.373763 
603.719408  	0.371473 
605.648224  	0.370281 
607.577040  	0.369441 
609.505856  	0.368391 
611.434672  	0.366743 
613.363488  	0.365219 
615.292304  	0.364460 
617.221120  	0.361694 
619.149936  	0.359867 
621.078752  	0.358556 
623.007568  	0.357659 
624.936384  	0.356063 
626.865200  	0.354750 
628.794016  	0.352742 
630.722832  	0.350749 
632.651648  	0.350097 
634.580464  	0.350110 
636.509280  	0.350321 
638.438096  	0.349984 
640.366912  	0.349087 
642.295728  	0.347891 
644.224544  	0.345604 
646.153360  	0.342702 
648.082176  	0.339113 
650.010992  	0.336287 
651.939808  	0.332420 
653.868624  	0.328097 
655.797440  	0.323916 
657.726256  	0.320618 
659.655072  	0.316798 
661.583888  	0.313427 
663.512704  	0.310131 
665.441520  	0.306781 
667.370336  	0.300202 
669.299152  	0.295482 
671.227968  	0.295413 
673.156784  	0.292815 
675.085600  	0.290000 
677.014416  	0.288054 
678.943232  	0.286775 
680.872048  	0.285334 
682.800864  	0.283675 
684.729680  	0.282170 
686.658496  	0.280167 
688.587312  	0.278691 
690.516128  	0.277123 
692.444944  	0.276087 
694.373760  	0.275094 
696.302576  	0.273251 
698.231392  	0.270841 
700.160208  	0.268471 
702.089024  	0.266093 
704.017840  	0.264425 
705.946656  	0.261696 
707.875472  	0.258498 
709.804288  	0.256789 
711.733104  	0.255854 
713.661920  	0.253679 
715.590736  	0.252481 
717.519552  	0.252652 
719.448368  	0.253277 
721.377184  	0.254048 
723.306000  	0.254922 
725.234816  	0.255004 
727.163632  	0.253684 
729.092448  	0.251095 
731.021264  	0.248497 
732.950080  	0.245802 
734.878896  	0.242617 
736.807712  	0.239596 
738.736528  	0.237489 
740.665344  	0.236155 
742.594160  	0.235186 
744.522976  	0.233716 
746.451792  	0.232070 
748.380608  	0.230706 
750.309424  	0.229710 
752.238240  	0.228990 
754.167056  	0.228746 
756.095872  	0.227989 
758.024688  	0.226830 
759.953504  	0.226287 
761.882320  	0.226700 
763.811136  	0.227026 
765.739952  	0.226755 
767.668768  	0.225561 
769.597584  	0.224136 
771.526400  	0.223971 
773.455216  	0.226077 
775.384032  	0.228867 
777.312848  	0.232358 
779.241664  	0.236383 
781.170480  	0.237814 
783.099296  	0.235018 
785.028112  	0.229854 
786.956928  	0.224193 
788.885744  	0.219241 
790.814560  	0.215176 
792.743376  	0.212737 
794.672192  	0.211416 
796.601008  	0.210787 
798.529824  	0.208802 
800.458640  	0.205126 
802.387456  	0.201398 
804.316272  	0.199550 
806.245088  	0.198890 
808.173904  	0.198594 
810.102720  	0.198467 
812.031536  	0.198314 
813.960352  	0.198270 
815.889168  	0.198322 
817.817984  	0.198293 
819.746800  	0.198134 
821.675616  	0.197742 
823.604432  	0.197441 
825.533248  	0.196773 
827.462064  	0.195631 
829.390880  	0.194356 
831.319696  	0.193152 
833.248512  	0.191509 
835.177328  	0.189423 
837.106144  	0.186805 
839.034960  	0.183813 
840.963776  	0.180651 
842.892592  	0.177780 
844.821408  	0.174707 
846.750224  	0.171729 
848.679040  	0.169283 
850.607856  	0.166906 
852.536672  	0.164801 
854.465488  	0.162630 
856.394304  	0.160527 
858.323120  	0.158561 
860.251936  	0.156167 
862.180752  	0.153396 
864.109568  	0.151062 
866.038384  	0.148790 
867.967200  	0.146616 
869.896016  	0.144759 
871.824832  	0.143515 
873.753648  	0.143505 
875.682464  	0.144038 
877.611280  	0.143205 
879.540096  	0.142445 
881.468912  	0.144198 
883.397728  	0.145242 
885.326544  	0.145840 
887.255360  	0.145476 
889.184176  	0.143778 
891.112992  	0.140994 
893.041808  	0.139412 
894.970624  	0.137805 
896.899440  	0.134965 
898.828256  	0.131627 
900.757072  	0.128693 
902.685888  	0.126675 
904.614704  	0.125871 
906.543520  	0.126501 
908.472336  	0.128667 
910.401152  	0.131770 
912.329968  	0.135442 
914.258784  	0.139125 
916.187600  	0.142365 
918.116416  	0.144681 
920.045232  	0.146059 
921.974048  	0.146163 
923.902864  	0.145535 
925.831680  	0.144762 
927.760496  	0.144012 
929.689312  	0.143424 
931.618128  	0.143545 
933.546944  	0.144217 
935.475760  	0.144545 
937.404576  	0.144636 
939.333392  	0.145262 
941.262208  	0.146695 
943.191024  	0.149163 
945.119840  	0.153254 
947.048656  	0.158603 
948.977472  	0.165080 
950.906288  	0.172604 
952.835104  	0.180709 
954.763920  	0.188596 
956.692736  	0.195759 
958.621552  	0.201757 
960.550368  	0.205455 
962.479184  	0.206884 
964.408000  	0.205138 
966.336816  	0.200646 
968.265632  	0.193397 
970.194448  	0.184458 
972.123264  	0.174236 
974.052080  	0.163402 
975.980896  	0.152959 
977.909712  	0.143294 
979.838528  	0.135070 
981.767344  	0.128455 
983.696160  	0.123658 
985.624976  	0.121219 
987.553792  	0.121184 
989.482608  	0.122886 
991.411424  	0.126395 
993.340240  	0.131675 
995.269056  	0.138046 
997.197872  	0.144832 
999.126688  	0.151326 
1001.055504  	0.157978 
1002.984320  	0.164213 
1004.913136  	0.170033 
1006.841952  	0.175128 
1008.770768  	0.179138 
1010.699584  	0.181484 
1012.628400  	0.182683 
1014.557216  	0.182831 
1016.486032  	0.182724 
1018.414848  	0.182553 
1020.343664  	0.182536 
1022.272480  	0.182329 
1024.201296  	0.180673 
1026.130112  	0.174653 
1028.058928  	0.172271 
1029.987744  	0.177686 
1031.916560  	0.179432 
1033.845376  	0.178349 
1035.774192  	0.175507 
1037.703008  	0.173973 
1039.631824  	0.177920 
1041.560640  	0.183151 
1043.489456  	0.190259 
1045.418272  	0.199996 
1047.347088  	0.212536 
1049.275904  	0.225908 
1051.204720  	0.238757 
1053.133536  	0.249510 
1055.062352  	0.257014 
1056.991168  	0.259842 
1058.919984  	0.265426 
1060.848800  	0.270639 
1062.777616  	0.267958 
1064.706432  	0.257297 
1066.635248  	0.249491 
1068.564064  	0.251709 
1070.492880  	0.249205 
1072.421696  	0.240377 
1074.350512  	0.232763 
1076.279328  	0.228481 
1078.208144  	0.227326 
1080.136960  	0.228579 
1082.065776  	0.231158 
1083.994592  	0.233659 
1085.923408  	0.235487 
1087.852224  	0.235549 
1089.781040  	0.235009 
1091.709856  	0.234654 
1093.638672  	0.230696 
1095.567488  	0.222663 
1097.496304  	0.213562 
1099.425120  	0.203781 
1101.353936  	0.193480 
1103.282752  	0.183213 
1105.211568  	0.173370 
1107.140384  	0.164145 
1109.069200  	0.155197 
1110.998016  	0.146986 
1112.926832  	0.139195 
1114.855648  	0.131595 
1116.784464  	0.124126 
1118.713280  	0.117367 
1120.642096  	0.111158 
1122.570912  	0.104973 
1124.499728  	0.098924 
1126.428544  	0.093156 
1128.357360  	0.087908 
1130.286176  	0.083179 
1132.214992  	0.079141 
1134.143808  	0.075785 
1136.072624  	0.072760 
1138.001440  	0.069945 
1139.930256  	0.067118 
1141.859072  	0.064536 
1143.787888  	0.061923 
1145.716704  	0.059731 
1147.645520  	0.057923 
1149.574336  	0.056482 
1151.503152  	0.055348 
1153.431968  	0.054919 
1155.360784  	0.054854 
1157.289600  	0.055488 
1159.218416  	0.056380 
1161.147232  	0.057838 
1163.076048  	0.059272 
1165.004864  	0.061143 
1166.933680  	0.063111 
1168.862496  	0.065259 
1170.791312  	0.067573 
1172.720128  	0.070094 
1174.648944  	0.072558 
1176.577760  	0.074945 
1178.506576  	0.077184 
1180.435392  	0.079676 
1182.364208  	0.082086 
1184.293024  	0.084575 
1186.221840  	0.087256 
1188.150656  	0.090401 
1190.079472  	0.094094 
1192.008288  	0.098546 
1193.937104  	0.103771 
1195.865920  	0.110034 
1197.794736  	0.116680 
1199.723552  	0.123946 
1201.652368  	0.131310 
1203.581184  	0.138784 
1205.510000  	0.146065 
1207.438816  	0.153402 
1209.367632  	0.160700 
1211.296448  	0.167551 
1213.225264  	0.173194 
1215.154080  	0.177543 
1217.082896  	0.180835 
1219.011712  	0.183129 
1220.940528  	0.185012 
1222.869344  	0.186405 
1224.798160  	0.187221 
1226.726976  	0.187593 
1228.655792  	0.187642 
1230.584608  	0.187454 
1232.513424  	0.187074 
1234.442240  	0.186126 
1236.371056  	0.184240 
1238.299872  	0.180808 
1240.228688  	0.173028 
1242.157504  	0.165862 
1244.086320  	0.161753 
1246.015136  	0.154530 
1247.943952  	0.145439 
1249.872768  	0.136897 
1251.801584  	0.130494 
1253.730400  	0.123985 
1255.659216  	0.117462 
1257.588032  	0.111351 
1259.516848  	0.105814 
1261.445664  	0.100863 
1263.374480  	0.096441 
1265.303296  	0.092690 
1267.232112  	0.089966 
1269.160928  	0.088011 
1271.089744  	0.086596 
1273.018560  	0.085768 
1274.947376  	0.085426 
1276.876192  	0.085094 
1278.805008  	0.084424 
1280.733824  	0.082976 
1282.662640  	0.080373 
1284.591456  	0.077170 
1286.520272  	0.074207 
1288.449088  	0.071828 
1290.377904  	0.069905 
1292.306720  	0.068551 
1294.235536  	0.066925 
1296.164352  	0.064364 
1298.093168  	0.061008 
1300.021984  	0.057588 
1301.950800  	0.054310 
1303.879616  	0.051386 
1305.808432  	0.048868 
1307.737248  	0.046867 
1309.666064  	0.044904 
1311.594880  	0.043885 
1313.523696  	0.043274 
1315.452512  	0.042732 
1317.381328  	0.042933 
1319.310144  	0.043347 
1321.238960  	0.043490 
1323.167776  	0.043977 
1325.096592  	0.044656 
1327.025408  	0.045101 
1328.954224  	0.044979 
1330.883040  	0.044358 
1332.811856  	0.043341 
1334.740672  	0.042722 
1336.669488  	0.042740 
1338.598304  	0.043231 
1340.527120  	0.042232 
1342.455936  	0.040002 
1344.384752  	0.039180 
1346.313568  	0.039416 
1348.242384  	0.040360 
1350.171200  	0.041847 
1352.100016  	0.043430 
1354.028832  	0.045338 
1355.957648  	0.047281 
1357.886464  	0.048981 
1359.815280  	0.050932 
1361.744096  	0.053560 
1363.672912  	0.054497 
1365.601728  	0.053372 
1367.530544  	0.053130 
1369.459360  	0.052375 
1371.388176  	0.050477 
1373.316992  	0.048554 
1375.245808  	0.045113 
1377.174624  	0.041058 
1379.103440  	0.037524 
1381.032256  	0.034331 
1382.961072  	0.032295 
1384.889888  	0.032162 
1386.818704  	0.033491 
1388.747520  	0.032809 
1390.676336  	0.028917 
1392.605152  	0.022525 
1394.533968  	0.021292 
1396.462784  	0.028035 
1398.391600  	0.030170 
1400.320416  	0.028738 
1402.249232  	0.026799 
1404.178048  	0.027064 
1406.106864  	0.027771 
1408.035680  	0.029394 
1409.964496  	0.032640 
1411.893312  	0.036953 
1413.822128  	0.040949 
1415.750944  	0.045701 
1417.679760  	0.049898 
1419.608576  	0.051763 
1421.537392  	0.050963 
1423.466208  	0.050914 
1425.395024  	0.049688 
1427.323840  	0.047997 
1429.252656  	0.046955 
1431.181472  	0.045846 
1433.110288  	0.045091 
1435.039104  	0.045718 
1436.967920  	0.046975 
1438.896736  	0.046588 
1440.825552  	0.046307 
1442.754368  	0.046815 
1444.683184  	0.046997 
1446.612000  	0.047432 
1448.540816  	0.046927 
1450.469632  	0.046332 
1452.398448  	0.046763 
1454.327264  	0.047950 
1456.256080  	0.050958 
1458.184896  	0.052859 
1460.113712  	0.051415 
1462.042528  	0.050880 
1463.971344  	0.051905 
1465.900160  	0.054282 
1467.828976  	0.056263 
1469.757792  	0.059176 
1471.686608  	0.064263 
1473.615424  	0.070864 
1475.544240  	0.074380 
1477.473056  	0.076766 
1479.401872  	0.077837 
1481.330688  	0.079367 
1483.259504  	0.079805 
1485.188320  	0.079934 
1487.117136  	0.079817 
1489.045952  	0.079463 
1490.974768  	0.075726 
1492.903584  	0.070838 
1494.832400  	0.067300 
1496.761216  	0.063911 
1498.690032  	0.059739 
1500.618848  	0.056270 
1502.547664  	0.052996 
1504.476480  	0.050388 
1506.405296  	0.051318 
1508.334112  	0.051920 
1510.262928  	0.048368 
1512.191744  	0.045710 
1514.120560  	0.044592 
1516.049376  	0.045687 
1517.978192  	0.046292 
1519.907008  	0.047162 
1521.835824  	0.050349 
1523.764640  	0.052578 
1525.693456  	0.055444 
1527.622272  	0.057484 
1529.551088  	0.057805 
1531.479904  	0.058043 
1533.408720  	0.057787 
1535.337536  	0.055465 
1537.266352  	0.052552 
1539.195168  	0.049797 
1541.123984  	0.047959 
1543.052800  	0.047488 
1544.981616  	0.045994 
1546.910432  	0.043076 
1548.839248  	0.042502 
1550.768064  	0.043107 
1552.696880  	0.042371 
1554.625696  	0.043568 
1556.554512  	0.043749 
1558.483328  	0.046267 
1560.412144  	0.050613 
1562.340960  	0.051798 
1564.269776  	0.054225 
1566.198592  	0.058642 
1568.127408  	0.062404 
1570.056224  	0.068727 
1571.985040  	0.073182 
1573.913856  	0.075690 
1575.842672  	0.078006 
1577.771488  	0.080653 
1579.700304  	0.080199 
1581.629120  	0.079773 
1583.557936  	0.079799 
1585.486752  	0.081158 
1587.415568  	0.083805 
1589.344384  	0.088390 
1591.273200  	0.093690 
1593.202016  	0.100126 
1595.130832  	0.106495 
1597.059648  	0.112546 
1598.988464  	0.117190 
1600.917280  	0.121286 
1602.846096  	0.123662 
1604.774912  	0.124828 
1606.703728  	0.124497 
1608.632544  	0.124061 
1610.561360  	0.122575 
1612.490176  	0.121690 
1614.418992  	0.120946 
1616.347808  	0.122051 
1618.276624  	0.124925 
1620.205440  	0.128570 
1622.134256  	0.132928 
1624.063072  	0.140461 
1625.991888  	0.146963 
1627.920704  	0.154878 
1629.849520  	0.163456 
1631.778336  	0.171359 
1633.707152  	0.177915 
1635.635968  	0.187227 
1637.564784  	0.195786 
1639.493600  	0.200484 
1641.422416  	0.204237 
1643.351232  	0.207263 
1645.280048  	0.208852 
1647.208864  	0.210887 
1649.137680  	0.210342 
1651.066496  	0.208658 
1652.995312  	0.206363 
1654.924128  	0.205089 
1656.852944  	0.201975 
1658.781760  	0.199071 
1660.710576  	0.196324 
1662.639392  	0.193502 
1664.568208  	0.190546 
1666.497024  	0.188381 
1668.425840  	0.186182 
1670.354656  	0.183709 
1672.283472  	0.181371 
1674.212288  	0.179760 
1676.141104  	0.178724 
1678.069920  	0.178498 
1679.998736  	0.179068 
1681.927552  	0.179110 
1683.856368  	0.178590 
1685.785184  	0.178456 
1687.714000  	0.177521 
1689.642816  	0.175899 
1691.571632  	0.173183 
1693.500448  	0.170722 
1695.429264  	0.167698 
1697.358080  	0.164723 
1699.286896  	0.160864 
1701.215712  	0.155348 
1703.144528  	0.151023 
1705.073344  	0.145693 
1707.002160  	0.139239 
1708.930976  	0.133421 
1710.859792  	0.127238 
1712.788608  	0.120917 
1714.717424  	0.114760 
1716.646240  	0.107336 
1718.575056  	0.098068 
1720.503872  	0.089473 
1722.432688  	0.082536 
1724.361504  	0.074788 
1726.290320  	0.067887 
1728.219136  	0.062177 
1730.147952  	0.057598 
1732.076768  	0.052711 
1734.005584  	0.047987 
1735.934400  	0.041712 
1737.863216  	0.037873 
1739.792032  	0.033739 
1741.720848  	0.031011 
1743.649664  	0.028819 
1745.578480  	0.026290 
1747.507296  	0.024192 
1749.436112  	0.023297 
1751.364928  	0.021819 
1753.293744  	0.019510 
1755.222560  	0.017702 
1757.151376  	0.017380 
1759.080192  	0.015990 
1761.009008  	0.015537 
1762.937824  	0.014798 
1764.866640  	0.013943 
1766.795456  	0.013852 
1768.724272  	0.014262 
1770.653088  	0.012857 
1772.581904  	0.012741 
1774.510720  	0.012688 
1776.439536  	0.012438 
1778.368352  	0.011971 
1780.297168  	0.012431 
1782.225984  	0.011936 
1784.154800  	0.011689 
1786.083616  	0.011414 
1788.012432  	0.011022 
1789.941248  	0.011071 
1791.870064  	0.011689 
1793.798880  	0.011170 
1795.727696  	0.011192 
1797.656512  	0.010595 
1799.585328  	0.010539 
1801.514144  	0.010853 
1803.442960  	0.010119 
1805.371776  	0.009245 
1807.300592  	0.009423 
1809.229408  	0.009167 
1811.158224  	0.009407 
1813.087040  	0.008944 
1815.015856  	0.008398 
1816.944672  	0.008327 
1818.873488  	0.008633 
1820.802304  	0.008698 
1822.731120  	0.009078 
1824.659936  	0.009564 
1826.588752  	0.009452 
1828.517568  	0.008800 
1830.446384  	0.009529 
1832.375200  	0.008907 
1834.304016  	0.008327 
1836.232832  	0.008231 
1838.161648  	0.008827 
1840.090464  	0.008615 
1842.019280  	0.008664 
1843.948096  	0.008899 
1845.876912  	0.009145 
1847.805728  	0.008843 
1849.734544  	0.008633 
1851.663360  	0.008010 
1853.592176  	0.008068 
1855.520992  	0.007797 
1857.449808  	0.008321 
1859.378624  	0.008304 
1861.307440  	0.008164 
1863.236256  	0.007716 
1865.165072  	0.007927 
1867.093888  	0.008441 
1869.022704  	0.009650 
1870.951520  	0.008679 
1872.880336  	0.007938 
1874.809152  	0.007383 
1876.737968  	0.007372 
1878.666784  	0.007070 
1880.595600  	0.007358 
1882.524416  	0.007330 
1884.453232  	0.007275 
1886.382048  	0.007107 
1888.310864  	0.007597 
1890.239680  	0.007757 
1892.168496  	0.007614 
1894.097312  	0.007355 
1896.026128  	0.007642 
1897.954944  	0.007116 
1899.883760  	0.006897 
1901.812576  	0.006642 
1903.741392  	0.006886 
1905.670208  	0.006673 
1907.599024  	0.006998 
1909.527840  	0.006833 
1911.456656  	0.007003 
1913.385472  	0.007069 
1915.314288  	0.007554 
1917.243104  	0.007672 
1919.171920  	0.007645 
1921.100736  	0.006949 
1923.029552  	0.007425 
1924.958368  	0.006581 
1926.887184  	0.006562 
1928.816000  	0.006127 
1930.744816  	0.005664 
1932.673632  	0.005219 
1934.602448  	0.006156 
1936.531264  	0.006568 
1938.460080  	0.006297 
1940.388896  	0.005966 
1942.317712  	0.006897 
1944.246528  	0.006538 
1946.175344  	0.006958 
1948.104160  	0.006551 
1950.032976  	0.006480 
1951.961792  	0.006408 
1953.890608  	0.006561 
1955.819424  	0.005221 
1957.748240  	0.005670 
1959.677056  	0.006292 
1961.605872  	0.006153 
1963.534688  	0.005540 
1965.463504  	0.008104 
1967.392320  	0.007701 
1969.321136  	0.006460 
1971.249952  	0.006619 
1973.178768  	0.007650 
1975.107584  	0.006931 
1977.036400  	0.007241 
1978.965216  	0.009135 
1980.894032  	0.009469 
1982.822848  	0.007606 
1984.751664  	0.007902 
1986.680480  	0.008207 
1988.609296  	0.008651 
1990.538112  	0.008385 
1992.466928  	0.008432 
1994.395744  	0.007069 
1996.324560  	0.007303 
1998.253376  	0.007762 
2000.182192  	0.007781 
2002.111008  	0.006528 
2004.039824  	0.006592 
2005.968640  	0.006751 
2007.897456  	0.007303 
2009.826272  	0.006439 
2011.755088  	0.006322 
2013.683904  	0.006430 
2015.612720  	0.007622 
2017.541536  	0.007669 
2019.470352  	0.006724 
2021.399168  	0.005708 
2023.327984  	0.007374 
2025.256800  	0.007010 
2027.185616  	0.005871 
2029.114432  	0.006028 
2031.043248  	0.008408 
2032.972064  	0.007921 
2034.900880  	0.008282 
2036.829696  	0.008284 
2038.758512  	0.007649 
2040.687328  	0.007195 
2042.616144  	0.007297 
2044.544960  	0.006934 
2046.473776  	0.007457 
2048.402592  	0.007499 
2050.331408  	0.008513 
2052.260224  	0.007826 
2054.189040  	0.007583 
2056.117856  	0.006980 
2058.046672  	0.007259 
2059.975488  	0.007039 
2061.904304  	0.007229 
2063.833120  	0.007783 
2065.761936  	0.008403 
2067.690752  	0.007579 
2069.619568  	0.006958 
2071.548384  	0.006395 
2073.477200  	0.006840 
2075.406016  	0.007689 
2077.334832  	0.008089 
2079.263648  	0.006973 
2081.192464  	0.006601 
2083.121280  	0.007057 
2085.050096  	0.007325 
2086.978912  	0.007347 
2088.907728  	0.007678 
2090.836544  	0.006983 
2092.765360  	0.006667 
2094.694176  	0.006883 
2096.622992  	0.007383 
2098.551808  	0.006960 
2100.480624  	0.006898 
2102.409440  	0.006785 
2104.338256  	0.007316 
2106.267072  	0.007293 
2108.195888  	0.007423 
2110.124704  	0.007791 
2112.053520  	0.007956 
2113.982336  	0.007404 
2115.911152  	0.007551 
2117.839968  	0.007279 
2119.768784  	0.006810 
2121.697600  	0.006755 
2123.626416  	0.006332 
2125.555232  	0.005962 
2127.484048  	0.006196 
2129.412864  	0.005667 
2131.341680  	0.005121 
2133.270496  	0.005260 
2135.199312  	0.005895 
2137.128128  	0.006134 
2139.056944  	0.006565 
2140.985760  	0.005675 
2142.914576  	0.006589 
2144.843392  	0.006471 
2146.772208  	0.006692 
2148.701024  	0.006701 
2150.629840  	0.006692 
2152.558656  	0.005390 
2154.487472  	0.005199 
2156.416288  	0.005187 
2158.345104  	0.006958 
2160.273920  	0.009310 
2162.202736  	0.010292 
2164.131552  	0.009726 
2166.060368  	0.011518 
2167.989184  	0.010221 
2169.918000  	0.008342 
2171.846816  	0.007389 
2173.775632  	0.007310 
2175.704448  	0.008009 
2177.633264  	0.009663 
2179.562080  	0.009032 
2181.490896  	0.008543 
2183.419712  	0.008600 
2185.348528  	0.008919 
2187.277344  	0.007898 
2189.206160  	0.008277 
2191.134976  	0.009925 
2193.063792  	0.010390 
2194.992608  	0.009295 
2196.921424  	0.008628 
2198.850240  	0.008811 
2200.779056  	0.009376 
2202.707872  	0.009170 
2204.636688  	0.009092 
2206.565504  	0.008800 
2208.494320  	0.009491 
2210.423136  	0.008855 
2212.351952  	0.008724 
2214.280768  	0.008709 
2216.209584  	0.008306 
2218.138400  	0.008526 
2220.067216  	0.009093 
2221.996032  	0.008771 
2223.924848  	0.008454 
2225.853664  	0.008628 
2227.782480  	0.009085 
2229.711296  	0.008979 
2231.640112  	0.008538 
2233.568928  	0.007964 
2235.497744  	0.008046 
2237.426560  	0.007737 
2239.355376  	0.007608 
2241.284192  	0.007277 
2243.213008  	0.007418 
2245.141824  	0.007508 
2247.070640  	0.007421 
2248.999456  	0.007496 
2250.928272  	0.007942 
2252.857088  	0.007782 
2254.785904  	0.007671 
2256.714720  	0.008326 
2258.643536  	0.008770 
2260.572352  	0.008082 
2262.501168  	0.007794 
2264.429984  	0.007866 
2266.358800  	0.008213 
2268.287616  	0.008302 
2270.216432  	0.008384 
2272.145248  	0.008075 
2274.074064  	0.008227 
2276.002880  	0.008416 
2277.931696  	0.008883 
2279.860512  	0.009056 
2281.789328  	0.009223 
2283.718144  	0.009238 
2285.646960  	0.009483 
2287.575776  	0.009587 
2289.504592  	0.009281 
2291.433408  	0.008874 
2293.362224  	0.008946 
2295.291040  	0.009175 
2297.219856  	0.009483 
2299.148672  	0.009534 
2301.077488  	0.009617 
2303.006304  	0.009427 
2304.935120  	0.009267 
2306.863936  	0.009136 
2308.792752  	0.009132 
2310.721568  	0.008814 
2312.650384  	0.008288 
2314.579200  	0.007576 
2316.508016  	0.007128 
2318.436832  	0.006139 
2320.365648  	0.005210 
2322.294464  	0.004349 
2324.223280  	0.002829 
2326.152096  	0.000793 
2328.080912  	-0.000652 
2330.009728  	-0.001735 
2331.938544  	-0.002697 
2333.867360  	-0.004056 
2335.796176  	-0.005101 
2337.724992  	-0.005705 
2339.653808  	-0.005908 
2341.582624  	-0.005832 
2343.511440  	-0.004148 
2345.440256  	-0.001434 
2347.369072  	0.001982 
2349.297888  	0.002301 
2351.226704  	-0.000780 
2353.155520  	-0.004181 
2355.084336  	-0.007130 
2357.013152  	-0.009554 
2358.941968  	-0.011216 
2360.870784  	-0.012169 
2362.799600  	-0.011069 
2364.728416  	-0.009068 
2366.657232  	-0.006910 
2368.586048  	-0.004630 
2370.514864  	-0.001724 
2372.443680  	0.000875 
2374.372496  	0.003574 
2376.301312  	0.005754 
2378.230128  	0.007506 
2380.158944  	0.008496 
2382.087760  	0.008973 
2384.016576  	0.009152 
2385.945392  	0.009213 
2387.874208  	0.008893 
2389.803024  	0.008468 
2391.731840  	0.008330 
2393.660656  	0.008367 
2395.589472  	0.008417 
2397.518288  	0.008608 
2399.447104  	0.008582 
2401.375920  	0.008281 
2403.304736  	0.008294 
2405.233552  	0.008527 
2407.162368  	0.008685 
2409.091184  	0.008560 
2411.020000  	0.008497 
2412.948816  	0.008755 
2414.877632  	0.008754 
2416.806448  	0.008822 
2418.735264  	0.008950 
2420.664080  	0.008992 
2422.592896  	0.008686 
2424.521712  	0.008652 
2426.450528  	0.008662 
2428.379344  	0.008560 
2430.308160  	0.008817 
2432.236976  	0.009111 
2434.165792  	0.009313 
2436.094608  	0.009829 
2438.023424  	0.009974 
2439.952240  	0.009809 
2441.881056  	0.009947 
2443.809872  	0.010094 
2445.738688  	0.009995 
2447.667504  	0.010018 
2449.596320  	0.010031 
2451.525136  	0.010114 
2453.453952  	0.010134 
2455.382768  	0.010344 
2457.311584  	0.010516 
2459.240400  	0.010537 
2461.169216  	0.010431 
2463.098032  	0.010379 
2465.026848  	0.010211 
2466.955664  	0.010226 
2468.884480  	0.010138 
2470.813296  	0.010174 
2472.742112  	0.010101 
2474.670928  	0.010133 
2476.599744  	0.010277 
2478.528560  	0.010428 
2480.457376  	0.010474 
2482.386192  	0.010576 
2484.315008  	0.010744 
2486.243824  	0.010845 
2488.172640  	0.010577 
2490.101456  	0.010616 
2492.030272  	0.010797 
2493.959088  	0.010735 
2495.887904  	0.010678 
2497.816720  	0.010850 
2499.745536  	0.010975 
2501.674352  	0.011099 
2503.603168  	0.011205 
2505.531984  	0.011316 
2507.460800  	0.011459 
2509.389616  	0.011450 
2511.318432  	0.011319 
2513.247248  	0.011578 
2515.176064  	0.011602 
2517.104880  	0.011784 
2519.033696  	0.011957 
2520.962512  	0.012005 
2522.891328  	0.012232 
2524.820144  	0.012260 
2526.748960  	0.012157 
2528.677776  	0.012343 
2530.606592  	0.012362 
2532.535408  	0.012415 
2534.464224  	0.012647 
2536.393040  	0.012756 
2538.321856  	0.012640 
2540.250672  	0.012575 
2542.179488  	0.012552 
2544.108304  	0.012640 
2546.037120  	0.012652 
2547.965936  	0.012992 
2549.894752  	0.013168 
2551.823568  	0.013211 
2553.752384  	0.013264 
2555.681200  	0.013243 
2557.610016  	0.013264 
2559.538832  	0.013388 
2561.467648  	0.013584 
2563.396464  	0.013992 
2565.325280  	0.014227 
2567.254096  	0.014171 
2569.182912  	0.013907 
2571.111728  	0.013811 
2573.040544  	0.013805 
2574.969360  	0.013902 
2576.898176  	0.014037 
2578.826992  	0.014324 
2580.755808  	0.014394 
2582.684624  	0.014287 
2584.613440  	0.014336 
2586.542256  	0.014648 
2588.471072  	0.014882 
2590.399888  	0.014846 
2592.328704  	0.014843 
2594.257520  	0.014969 
2596.186336  	0.015197 
2598.115152  	0.015225 
2600.043968  	0.014996 
2601.972784  	0.014968 
2603.901600  	0.015200 
2605.830416  	0.015500 
2607.759232  	0.015386 
2609.688048  	0.015393 
2611.616864  	0.015636 
2613.545680  	0.015709 
2615.474496  	0.015724 
2617.403312  	0.015890 
2619.332128  	0.016127 
2621.260944  	0.016232 
2623.189760  	0.016226 
2625.118576  	0.016296 
2627.047392  	0.016366 
2628.976208  	0.016710 
2630.905024  	0.016863 
2632.833840  	0.016950 
2634.762656  	0.017044 
2636.691472  	0.017084 
2638.620288  	0.017176 
2640.549104  	0.017271 
2642.477920  	0.017390 
2644.406736  	0.017514 
2646.335552  	0.017692 
2648.264368  	0.017795 
2650.193184  	0.017925 
2652.122000  	0.018177 
2654.050816  	0.018307 
2655.979632  	0.018264 
2657.908448  	0.018357 
2659.837264  	0.018475 
2661.766080  	0.018454 
2663.694896  	0.018465 
2665.623712  	0.018405 
2667.552528  	0.018438 
2669.481344  	0.018606 
2671.410160  	0.018812 
2673.338976  	0.018927 
2675.267792  	0.018962 
2677.196608  	0.019096 
2679.125424  	0.019334 
2681.054240  	0.019272 
2682.983056  	0.019270 
2684.911872  	0.019524 
2686.840688  	0.019714 
2688.769504  	0.019830 
2690.698320  	0.019893 
2692.627136  	0.020045 
2694.555952  	0.020179 
2696.484768  	0.020140 
2698.413584  	0.020190 
2700.342400  	0.020203 
2702.271216  	0.020397 
2704.200032  	0.020693 
2706.128848  	0.020870 
2708.057664  	0.020954 
2709.986480  	0.020932 
2711.915296  	0.020909 
2713.844112  	0.020989 
2715.772928  	0.021157 
2717.701744  	0.021254 
2719.630560  	0.021221 
2721.559376  	0.021315 
2723.488192  	0.021452 
2725.417008  	0.021666 
2727.345824  	0.021812 
2729.274640  	0.021768 
2731.203456  	0.021708 
2733.132272  	0.021819 
2735.061088  	0.022037 
2736.989904  	0.022167 
2738.918720  	0.022133 
2740.847536  	0.022034 
2742.776352  	0.022049 
2744.705168  	0.022187 
2746.633984  	0.022254 
2748.562800  	0.022384 
2750.491616  	0.022524 
2752.420432  	0.022480 
2754.349248  	0.022456 
2756.278064  	0.022586 
2758.206880  	0.022559 
2760.135696  	0.022639 
2762.064512  	0.022640 
2763.993328  	0.022644 
2765.922144  	0.022627 
2767.850960  	0.022631 
2769.779776  	0.022590 
2771.708592  	0.022569 
2773.637408  	0.022568 
2775.566224  	0.022572 
2777.495040  	0.022467 
2779.423856  	0.022489 
2781.352672  	0.022645 
2783.281488  	0.022744 
2785.210304  	0.022709 
2787.139120  	0.022733 
2789.067936  	0.022794 
2790.996752  	0.022833 
2792.925568  	0.022886 
2794.854384  	0.022950 
2796.783200  	0.022874 
2798.712016  	0.022670 
2800.640832  	0.022575 
2802.569648  	0.022684 
2804.498464  	0.022833 
2806.427280  	0.022820 
2808.356096  	0.022870 
2810.284912  	0.022999 
2812.213728  	0.022885 
2814.142544  	0.022814 
2816.071360  	0.022786 
2818.000176  	0.022639 
2819.928992  	0.022394 
2821.857808  	0.022277 
2823.786624  	0.022200 
2825.715440  	0.022028 
2827.644256  	0.021734 
2829.573072  	0.021512 
2831.501888  	0.021075 
2833.430704  	0.020661 
2835.359520  	0.020258 
2837.288336  	0.019659 
2839.217152  	0.019086 
2841.145968  	0.018560 
2843.074784  	0.018098 
2845.003600  	0.017914 
2846.932416  	0.017893 
2848.861232  	0.017649 
2850.790048  	0.016725 
2852.718864  	0.015203 
2854.647680  	0.013588 
2856.576496  	0.012185 
2858.505312  	0.010686 
2860.434128  	0.009016 
2862.362944  	0.007280 
2864.291760  	0.005374 
2866.220576  	0.003670 
2868.149392  	0.002711 
2870.078208  	0.002277 
2872.007024  	0.001902 
2873.935840  	0.001604 
2875.864656  	0.001236 
2877.793472  	0.000373 
2879.722288  	-0.000841 
2881.651104  	-0.002437 
2883.579920  	-0.003739 
2885.508736  	-0.003949 
2887.437552  	-0.003583 
2889.366368  	-0.003728 
2891.295184  	-0.004534 
2893.224000  	-0.005100 
2895.152816  	-0.004970 
2897.081632  	-0.005763 
2899.010448  	-0.009294 
2900.939264  	-0.012302 
2902.868080  	-0.009699 
2904.796896  	-0.006878 
2906.725712  	-0.005784 
2908.654528  	-0.004945 
2910.583344  	-0.004304 
2912.512160  	-0.002488 
2914.440976  	0.000293 
2916.369792  	0.002173 
2918.298608  	0.003006 
2920.227424  	0.003236 
2922.156240  	0.003700 
2924.085056  	0.004472 
2926.013872  	0.005389 
2927.942688  	0.006348 
2929.871504  	0.007364 
2931.800320  	0.008212 
2933.729136  	0.008712 
2935.657952  	0.008823 
2937.586768  	0.009146 
2939.515584  	0.009207 
2941.444400  	0.008867 
2943.373216  	0.008686 
2945.302032  	0.008656 
2947.230848  	0.008488 
2949.159664  	0.007633 
2951.088480  	0.006225 
2953.017296  	0.004971 
2954.946112  	0.003586 
2956.874928  	0.001986 
2958.803744  	0.000348 
2960.732560  	-0.001034 
2962.661376  	-0.002442 
2964.590192  	-0.004365 
2966.519008  	-0.006725 
2968.447824  	-0.009069 
2970.376640  	-0.010810 
2972.305456  	-0.011784 
2974.234272  	-0.011516 
2976.163088  	-0.011173 
2978.091904  	-0.011001 
2980.020720  	-0.010914 
2981.949536  	-0.010743 
2983.878352  	-0.011510 
2985.807168  	-0.013654 
2987.735984  	-0.015411 
2989.664800  	-0.014247 
2991.593616  	-0.007768 
2993.522432  	-0.004095 
2995.451248  	-0.003184 
2997.380064  	-0.001514 
2999.308880  	0.000932 
3001.237696  	0.003721 
3003.166512  	0.006397 
3005.095328  	0.008981 
3007.024144  	0.011815 
3008.952960  	0.014524 
3010.881776  	0.017218 
3012.810592  	0.019905 
3014.739408  	0.022264 
3016.668224  	0.024618 
3018.597040  	0.026865 
3020.525856  	0.028931 
3022.454672  	0.030885 
3024.383488  	0.032700 
3026.312304  	0.034459 
3028.241120  	0.036033 
3030.169936  	0.037408 
3032.098752  	0.038948 
3034.027568  	0.040226 
3035.956384  	0.041260 
3037.885200  	0.042300 
3039.814016  	0.043378 
3041.742832  	0.044331 
3043.671648  	0.044999 
3045.600464  	0.045568 
3047.529280  	0.046201 
3049.458096  	0.046820 
3051.386912  	0.047260 
3053.315728  	0.047839 
3055.244544  	0.048577 
3057.173360  	0.049350 
3059.102176  	0.049838 
3061.030992  	0.050132 
3062.959808  	0.050556 
3064.888624  	0.051209 
3066.817440  	0.051792 
3068.746256  	0.052118 
3070.675072  	0.052380 
3072.603888  	0.053034 
3074.532704  	0.053703 
3076.461520  	0.054256 
3078.390336  	0.054783 
3080.319152  	0.055271 
3082.247968  	0.055831 
3084.176784  	0.056355 
3086.105600  	0.056702 
3088.034416  	0.057140 
3089.963232  	0.057694 
3091.892048  	0.058219 
3093.820864  	0.058726 
3095.749680  	0.059317 
3097.678496  	0.059665 
3099.607312  	0.060205 
3101.536128  	0.060715 
3103.464944  	0.061139 
3105.393760  	0.061677 
3107.322576  	0.062268 
3109.251392  	0.062713 
3111.180208  	0.063084 
3113.109024  	0.063432 
3115.037840  	0.063750 
3116.966656  	0.064231 
3118.895472  	0.064831 
3120.824288  	0.065246 
3122.753104  	0.065600 
3124.681920  	0.065965 
3126.610736  	0.066257 
3128.539552  	0.066511 
3130.468368  	0.066669 
3132.397184  	0.066901 
3134.326000  	0.067357 
3136.254816  	0.067548 
3138.183632  	0.067685 
3140.112448  	0.068028 
3142.041264  	0.068480 
3143.970080  	0.068869 
3145.898896  	0.069185 
3147.827712  	0.069440 
3149.756528  	0.069863 
3151.685344  	0.070432 
3153.614160  	0.070905 
3155.542976  	0.071088 
3157.471792  	0.071287 
3159.400608  	0.071894 
3161.329424  	0.072423 
3163.258240  	0.072841 
3165.187056  	0.073190 
3167.115872  	0.073470 
3169.044688  	0.073713 
3170.973504  	0.073833 
3172.902320  	0.073988 
3174.831136  	0.074356 
3176.759952  	0.074649 
3178.688768  	0.074937 
3180.617584  	0.075024 
3182.546400  	0.074928 
3184.475216  	0.075228 
3186.404032  	0.075502 
3188.332848  	0.075538 
3190.261664  	0.075761 
3192.190480  	0.075871 
3194.119296  	0.075670 
3196.048112  	0.075538 
3197.976928  	0.075575 
3199.905744  	0.075471 
3201.834560  	0.075406 
3203.763376  	0.075381 
3205.692192  	0.075348 
3207.621008  	0.075127 
3209.549824  	0.074863 
3211.478640  	0.074572 
3213.407456  	0.074388 
3215.336272  	0.074504 
3217.265088  	0.074313 
3219.193904  	0.073948 
3221.122720  	0.073564 
3223.051536  	0.073183 
3224.980352  	0.073010 
3226.909168  	0.072945 
3228.837984  	0.072737 
3230.766800  	0.072616 
3232.695616  	0.072543 
3234.624432  	0.072371 
3236.553248  	0.072130 
3238.482064  	0.071984 
3240.410880  	0.071982 
3242.339696  	0.071945 
3244.268512  	0.071979 
3246.197328  	0.072072 
3248.126144  	0.071974 
3250.054960  	0.071844 
3251.983776  	0.071904 
3253.912592  	0.072112 
3255.841408  	0.072253 
3257.770224  	0.072417 
3259.699040  	0.072570 
3261.627856  	0.072709 
3263.556672  	0.072892 
3265.485488  	0.072983 
3267.414304  	0.073237 
3269.343120  	0.073422 
3271.271936  	0.073527 
3273.200752  	0.073685 
3275.129568  	0.073917 
3277.058384  	0.073987 
3278.987200  	0.074155 
3280.916016  	0.074502 
3282.844832  	0.074550 
3284.773648  	0.074563 
3286.702464  	0.074699 
3288.631280  	0.074927 
3290.560096  	0.075146 
3292.488912  	0.075505 
3294.417728  	0.075724 
3296.346544  	0.075903 
3298.275360  	0.076032 
3300.204176  	0.076354 
3302.132992  	0.076686 
3304.061808  	0.076880 
3305.990624  	0.077243 
3307.919440  	0.077524 
3309.848256  	0.077707 
3311.777072  	0.077802 
3313.705888  	0.078154 
3315.634704  	0.078662 
3317.563520  	0.078888 
3319.492336  	0.078907 
3321.421152  	0.078925 
3323.349968  	0.079076 
3325.278784  	0.079365 
3327.207600  	0.079483 
3329.136416  	0.079428 
3331.065232  	0.079393 
3332.994048  	0.079551 
3334.922864  	0.079737 
3336.851680  	0.079692 
3338.780496  	0.079533 
3340.709312  	0.079164 
3342.638128  	0.078873 
3344.566944  	0.078831 
3346.495760  	0.078713 
3348.424576  	0.078401 
3350.353392  	0.078067 
3352.282208  	0.077780 
3354.211024  	0.077602 
3356.139840  	0.077477 
3358.068656  	0.077172 
3359.997472  	0.076709 
3361.926288  	0.076227 
3363.855104  	0.075859 
3365.783920  	0.075626 
3367.712736  	0.075377 
3369.641552  	0.074840 
3371.570368  	0.074205 
3373.499184  	0.073751 
3375.428000  	0.073254 
3377.356816  	0.072839 
3379.285632  	0.072605 
3381.214448  	0.072357 
3383.143264  	0.071950 
3385.072080  	0.071681 
3387.000896  	0.071156 
3388.929712  	0.070789 
3390.858528  	0.070412 
3392.787344  	0.070084 
3394.716160  	0.069594 
3396.644976  	0.069328 
3398.573792  	0.068981 
3400.502608  	0.068313 
3402.431424  	0.067644 
3404.360240  	0.067108 
3406.289056  	0.066749 
3408.217872  	0.066489 
3410.146688  	0.066129 
3412.075504  	0.065841 
3414.004320  	0.065536 
3415.933136  	0.064958 
3417.861952  	0.064511 
3419.790768  	0.064367 
3421.719584  	0.064061 
3423.648400  	0.063331 
3425.577216  	0.062731 
3427.506032  	0.062430 
3429.434848  	0.061851 
3431.363664  	0.061529 
3433.292480  	0.061323 
3435.221296  	0.060835 
3437.150112  	0.060380 
3439.078928  	0.060147 
3441.007744  	0.059667 
3442.936560  	0.059212 
3444.865376  	0.058780 
3446.794192  	0.058325 
3448.723008  	0.057808 
3450.651824  	0.056892 
3452.580640  	0.056261 
3454.509456  	0.055807 
3456.438272  	0.055358 
3458.367088  	0.055160 
3460.295904  	0.054825 
3462.224720  	0.054051 
3464.153536  	0.053263 
3466.082352  	0.052850 
3468.011168  	0.052301 
3469.939984  	0.051470 
3471.868800  	0.050727 
3473.797616  	0.050178 
3475.726432  	0.049577 
3477.655248  	0.049006 
3479.584064  	0.048709 
3481.512880  	0.048415 
3483.441696  	0.047472 
3485.370512  	0.046440 
3487.299328  	0.046006 
3489.228144  	0.045472 
3491.156960  	0.044599 
3493.085776  	0.043885 
3495.014592  	0.043391 
3496.943408  	0.043092 
3498.872224  	0.042446 
3500.801040  	0.042285 
3502.729856  	0.042335 
3504.658672  	0.041525 
3506.587488  	0.040158 
3508.516304  	0.039957 
3510.445120  	0.039998 
3512.373936  	0.039299 
3514.302752  	0.038612 
3516.231568  	0.038052 
3518.160384  	0.037552 
3520.089200  	0.037247 
3522.018016  	0.037313 
3523.946832  	0.037679 
3525.875648  	0.037128 
3527.804464  	0.036187 
3529.733280  	0.035572 
3531.662096  	0.034894 
3533.590912  	0.034045 
3535.519728  	0.033864 
3537.448544  	0.033763 
3539.377360  	0.032846 
3541.306176  	0.032113 
3543.234992  	0.032179 
3545.163808  	0.033112 
3547.092624  	0.033031 
3549.021440  	0.031188 
3550.950256  	0.030046 
3552.879072  	0.030349 
3554.807888  	0.029849 
3556.736704  	0.028981 
3558.665520  	0.028802 
3560.594336  	0.028824 
3562.523152  	0.028280 
3564.451968  	0.028382 
3566.380784  	0.030004 
3568.309600  	0.030012 
3570.238416  	0.027266 
3572.167232  	0.025169 
3574.096048  	0.024383 
3576.024864  	0.024067 
3577.953680  	0.023622 
3579.882496  	0.023371 
3581.811312  	0.023056 
3583.740128  	0.022502 
3585.668944  	0.022647 
3587.597760  	0.023834 
3589.526576  	0.022654 
3591.455392  	0.020192 
3593.384208  	0.019825 
3595.313024  	0.019953 
3597.241840  	0.018918 
3599.170656  	0.017628 
3601.099472  	0.016916 
3603.028288  	0.016312 
3604.957104  	0.015554 
3606.885920  	0.015582 
3608.814736  	0.016282 
3610.743552  	0.015020 
3612.672368  	0.014143 
3614.601184  	0.013949 
3616.530000  	0.012238 
3618.458816  	0.011603 
3620.387632  	0.011505 
3622.316448  	0.009755 
3624.245264  	0.008014 
3626.174080  	0.006829 
3628.102896  	0.007004 
3630.031712  	0.008679 
3631.960528  	0.006428 
3633.889344  	0.004500 
3635.818160  	0.002931 
3637.746976  	0.001563 
3639.675792  	0.001037 
3641.604608  	0.000266 
3643.533424  	-0.001053 
3645.462240  	-0.002642 
3647.391056  	-0.002751 
3649.319872  	-0.002651 
3651.248688  	-0.002961 
3653.177504  	-0.005647 
3655.106320  	-0.008326 
3657.035136  	-0.008967 
3658.963952  	-0.010348 
3660.892768  	-0.011802 
3662.821584  	-0.012637 
3664.750400  	-0.012942 
3666.679216  	-0.013550 
3668.608032  	-0.014055 
3670.536848  	-0.012729 
3672.465664  	-0.013159 
3674.394480  	-0.015486 
3676.323296  	-0.013243 
3678.252112  	-0.011169 
3680.180928  	-0.011051 
3682.109744  	-0.012397 
3684.038560  	-0.013602 
3685.967376  	-0.014422 
3687.896192  	-0.014528 
3689.825008  	-0.012381 
3691.753824  	-0.011079 
3693.682640  	-0.011022 
3695.611456  	-0.011012 
3697.540272  	-0.010189 
3699.469088  	-0.009595 
3701.397904  	-0.007921 
3703.326720  	-0.006277 
3705.255536  	-0.006248 
3707.184352  	-0.006345 
3709.113168  	-0.005931 
3711.041984  	-0.004184 
3712.970800  	-0.002223 
3714.899616  	-0.002348 
3716.828432  	-0.003454 
3718.757248  	-0.003658 
3720.686064  	-0.003537 
3722.614880  	-0.002449 
3724.543696  	-0.001543 
3726.472512  	-0.001401 
3728.401328  	-0.002715 
3730.330144  	-0.004721 
3732.258960  	-0.004397 
3734.187776  	-0.001514 
3736.116592  	0.001222 
3738.045408  	-0.000477 
3739.974224  	-0.002203 
3741.903040  	-0.003035 
3743.831856  	-0.002297 
3745.760672  	0.000562 
3747.689488  	-0.002333 
3749.618304  	-0.003647 
3751.547120  	-0.001808 
3753.475936  	-0.000562 
3755.404752  	-0.001943 
3757.333568  	-0.002607 
3759.262384  	-0.002328 
3761.191200  	-0.001938 
3763.120016  	-0.002613 
3765.048832  	-0.002523 
3766.977648  	-0.002337 
3768.906464  	-0.003020 
3770.835280  	-0.001952 
3772.764096  	-0.001990 
3774.692912  	-0.002786 
3776.621728  	-0.003430 
3778.550544  	-0.003314 
3780.479360  	-0.002333 
3782.408176  	-0.002741 
3784.336992  	-0.002929 
3786.265808  	-0.002526 
3788.194624  	-0.002897 
3790.123440  	-0.003152 
3792.052256  	-0.003170 
3793.981072  	-0.003545 
3795.909888  	-0.003357 
3797.838704  	-0.002727 
3799.767520  	-0.004120 
3801.696336  	-0.002928 
3803.625152  	-0.002158 
3805.553968  	-0.004016 
3807.482784  	-0.002951 
3809.411600  	-0.002357 
3811.340416  	-0.003033 
3813.269232  	-0.003842 
3815.198048  	-0.004300 
3817.126864  	-0.002563 
3819.055680  	-0.003390 
3820.984496  	-0.002601 
3822.913312  	-0.001035 
3824.842128  	-0.002622 
3826.770944  	-0.002841 
3828.699760  	-0.002975 
3830.628576  	-0.003677 
3832.557392  	-0.003122 
3834.486208  	-0.003302 
3836.415024  	-0.003658 
3838.343840  	-0.002277 
3840.272656  	-0.001429 
3842.201472  	-0.002278 
3844.130288  	-0.002600 
3846.059104  	-0.002823 
3847.987920  	-0.003525 
3849.916736  	-0.004287 
3851.845552  	-0.004860 
3853.774368  	-0.001071 
3855.703184  	0.000163 
3857.632000  	-0.001583 
3859.560816  	-0.003004 
3861.489632  	-0.003222 
3863.418448  	-0.002606 
3865.347264  	-0.001670 
3867.276080  	-0.002591 
3869.204896  	-0.002684 
3871.133712  	-0.000339 
3873.062528  	-0.001573 
3874.991344  	-0.001709 
3876.920160  	-0.002832 
3878.848976  	-0.003387 
3880.777792  	-0.001436 
3882.706608  	-0.001468 
3884.635424  	-0.002405 
3886.564240  	-0.001309 
3888.493056  	-0.002605 
3890.421872  	-0.002993 
3892.350688  	-0.001416 
3894.279504  	-0.001932 
3896.208320  	-0.003021 
3898.137136  	-0.002676 
3900.065952  	-0.001275 
3901.994768  	-0.000586 
3903.923584  	-0.000019 
3905.852400  	-0.000308 
3907.781216  	-0.002052 
3909.710032  	-0.003179 
3911.638848  	-0.003309 
3913.567664  	-0.003267 
3915.496480  	-0.002545 
3917.425296  	-0.001142 
3919.354112  	-0.001263 
3921.282928  	-0.001869 
3923.211744  	-0.002075 
3925.140560  	-0.001633 
3927.069376  	-0.002309 
3928.998192  	-0.002777 
3930.927008  	-0.001822 
3932.855824  	-0.000947 
3934.784640  	-0.001862 
3936.713456  	-0.002558 
3938.642272  	-0.002466 
3940.571088  	-0.002480 
3942.499904  	-0.001540 
3944.428720  	-0.001432 
3946.357536  	-0.002030 
3948.286352  	-0.001549 
3950.215168  	-0.001780 
3952.143984  	-0.002607 
3954.072800  	-0.002911 
3956.001616  	-0.002822 
3957.930432  	-0.002744 
3959.859248  	-0.002557 
3961.788064  	-0.002286 
3963.716880  	-0.002428 
3965.645696  	-0.002895 
3967.574512  	-0.002778 
3969.503328  	-0.002637 
3971.432144  	-0.002785 
3973.360960  	-0.002746 
3975.289776  	-0.002397 
3977.218592  	-0.002448 
3979.147408  	-0.002685 
3981.076224  	-0.002847 
3983.005040  	-0.003057 
3984.933856  	-0.003123 
3986.862672  	-0.003008 
3988.791488  	-0.002820 
3990.720304  	-0.002658 
3992.649120  	-0.002743 
3994.577936  	-0.002874 
3996.506752  	-0.003017 
3998.435568  	-0.003138 
4000.364384  	-0.003214 