##TITLE=No Description
##DATA TYPE=INFRARED SPECTRUM
##XUNITS=1/CM
##YUNITS=Abs
399.264912  	0.615791 
401.193728  	0.610366 
403.122544  	0.604757 
405.051360  	0.588805 
406.980176  	0.585609 
408.908992  	0.579097 
410.837808  	0.577084 
412.766624  	0.584207 
414.695440  	0.584827 
416.624256  	0.573659 
418.553072  	0.563096 
420.481888  	0.552621 
422.410704  	0.564015 
424.339520  	0.559956 
426.268336  	0.564027 
428.197152  	0.557728 
430.125968  	0.549681 
432.054784  	0.540156 
433.983600  	0.539636 
435.912416  	0.530890 
437.841232  	0.526945 
439.770048  	0.534161 
441.698864  	0.541945 
443.627680  	0.539070 
445.556496  	0.534388 
447.485312  	0.528882 
449.414128  	0.527458 
451.342944  	0.525646 
453.271760  	0.525232 
455.200576  	0.520441 
457.129392  	0.517845 
459.058208  	0.517089 
460.987024  	0.524835 
462.915840  	0.525170 
464.844656  	0.526125 
466.773472  	0.523876 
468.702288  	0.526930 
470.631104  	0.524878 
472.559920  	0.522761 
474.488736  	0.518240 
476.417552  	0.519409 
478.346368  	0.515838 
480.275184  	0.516923 
482.204000  	0.516319 
484.132816  	0.517478 
486.061632  	0.513677 
487.990448  	0.513801 
489.919264  	0.512310 
491.848080  	0.511285 
493.776896  	0.508936 
495.705712  	0.509177 
497.634528  	0.508181 
499.563344  	0.508389 
501.492160  	0.505449 
503.420976  	0.504500 
505.349792  	0.503077 
507.278608  	0.504857 
509.207424  	0.506132 
511.136240  	0.504683 
513.065056  	0.502552 
514.993872  	0.505953 
516.922688  	0.508907 
518.851504  	0.510636 
520.780320  	0.508969 
522.709136  	0.509155 
524.637952  	0.507453 
526.566768  	0.508429 
528.495584  	0.504104 
530.424400  	0.499623 
532.353216  	0.495857 
534.282032  	0.492765 
536.210848  	0.487789 
538.139664  	0.483616 
540.068480  	0.479553 
541.997296  	0.476265 
543.926112  	0.471169 
545.854928  	0.468932 
547.783744  	0.462989 
549.712560  	0.458143 
551.641376  	0.455282 
553.570192  	0.453257 
555.499008  	0.449053 
557.427824  	0.446255 
559.356640  	0.442462 
561.285456  	0.438813 
563.214272  	0.434544 
565.143088  	0.431500 
567.071904  	0.428106 
569.000720  	0.424383 
570.929536  	0.419372 
572.858352  	0.416348 
574.787168  	0.413630 
576.715984  	0.410695 
578.644800  	0.407001 
580.573616  	0.404224 
582.502432  	0.400107 
584.431248  	0.397564 
586.360064  	0.395097 
588.288880  	0.392578 
590.217696  	0.390019 
592.146512  	0.389018 
594.075328  	0.386634 
596.004144  	0.383700 
597.932960  	0.381271 
599.861776  	0.380642 
601.790592  	0.379906 
603.719408  	0.377981 
605.648224  	0.375584 
607.577040  	0.375203 
609.505856  	0.374662 
611.434672  	0.373215 
613.363488  	0.370715 
615.292304  	0.368930 
617.221120  	0.366782 
619.149936  	0.365910 
621.078752  	0.364027 
623.007568  	0.362087 
624.936384  	0.359982 
626.865200  	0.358925 
628.794016  	0.357939 
630.722832  	0.357097 
632.651648  	0.355940 
634.580464  	0.355600 
636.509280  	0.355605 
638.438096  	0.355430 
640.366912  	0.354359 
642.295728  	0.352216 
644.224544  	0.349508 
646.153360  	0.346814 
648.082176  	0.343291 
650.010992  	0.340404 
651.939808  	0.336588 
653.868624  	0.332736 
655.797440  	0.328834 
657.726256  	0.325490 
659.655072  	0.321924 
661.583888  	0.318121 
663.512704  	0.314050 
665.441520  	0.310634 
667.370336  	0.304895 
669.299152  	0.300216 
671.227968  	0.299741 
673.156784  	0.297855 
675.085600  	0.295146 
677.014416  	0.292880 
678.943232  	0.290988 
680.872048  	0.289068 
682.800864  	0.287813 
684.729680  	0.286556 
686.658496  	0.284941 
688.587312  	0.283372 
690.516128  	0.281368 
692.444944  	0.280127 
694.373760  	0.278910 
696.302576  	0.277399 
698.231392  	0.275418 
700.160208  	0.272990 
702.089024  	0.270427 
704.017840  	0.268697 
705.946656  	0.266363 
707.875472  	0.263477 
709.804288  	0.260934 
711.733104  	0.259391 
713.661920  	0.258060 
715.590736  	0.257261 
717.519552  	0.256738 
719.448368  	0.256677 
721.377184  	0.257080 
723.306000  	0.257961 
725.234816  	0.257821 
727.163632  	0.256942 
729.092448  	0.254827 
731.021264  	0.252292 
732.950080  	0.249637 
734.878896  	0.246193 
736.807712  	0.243121 
738.736528  	0.241503 
740.665344  	0.240207 
742.594160  	0.238422 
744.522976  	0.236479 
746.451792  	0.235228 
748.380608  	0.234397 
750.309424  	0.233665 
752.238240  	0.232603 
754.167056  	0.231862 
756.095872  	0.231125 
758.024688  	0.230141 
759.953504  	0.229307 
761.882320  	0.229154 
763.811136  	0.229621 
765.739952  	0.229424 
767.668768  	0.227948 
769.597584  	0.226315 
771.526400  	0.225900 
773.455216  	0.227574 
775.384032  	0.230364 
777.312848  	0.234062 
779.241664  	0.237684 
781.170480  	0.238692 
783.099296  	0.235944 
785.028112  	0.230933 
786.956928  	0.225151 
788.885744  	0.220053 
790.814560  	0.216306 
792.743376  	0.213871 
794.672192  	0.212440 
796.601008  	0.211425 
798.529824  	0.209327 
800.458640  	0.205705 
802.387456  	0.201901 
804.316272  	0.199955 
806.245088  	0.199324 
808.173904  	0.198971 
810.102720  	0.198678 
812.031536  	0.198591 
813.960352  	0.198437 
815.889168  	0.198322 
817.817984  	0.198115 
819.746800  	0.197931 
821.675616  	0.197608 
823.604432  	0.196999 
825.533248  	0.195894 
827.462064  	0.194516 
829.390880  	0.193363 
831.319696  	0.192146 
833.248512  	0.190433 
835.177328  	0.188366 
837.106144  	0.185809 
839.034960  	0.182836 
840.963776  	0.179883 
842.892592  	0.177011 
844.821408  	0.173762 
846.750224  	0.170886 
848.679040  	0.168669 
850.607856  	0.166459 
852.536672  	0.164464 
854.465488  	0.162374 
856.394304  	0.160377 
858.323120  	0.158141 
860.251936  	0.155887 
862.180752  	0.153338 
864.109568  	0.150853 
866.038384  	0.148610 
867.967200  	0.146236 
869.896016  	0.144429 
871.824832  	0.143479 
873.753648  	0.143286 
875.682464  	0.143630 
877.611280  	0.142931 
879.540096  	0.142167 
881.468912  	0.143780 
883.397728  	0.144566 
885.326544  	0.144687 
887.255360  	0.144265 
889.184176  	0.142711 
891.112992  	0.140230 
893.041808  	0.138551 
894.970624  	0.137034 
896.899440  	0.134324 
898.828256  	0.130936 
900.757072  	0.128033 
902.685888  	0.125987 
904.614704  	0.125062 
906.543520  	0.125460 
908.472336  	0.127292 
910.401152  	0.130088 
912.329968  	0.133349 
914.258784  	0.136727 
916.187600  	0.139797 
918.116416  	0.142077 
920.045232  	0.143197 
921.974048  	0.143158 
923.902864  	0.142647 
925.831680  	0.141782 
927.760496  	0.141016 
929.689312  	0.140371 
931.618128  	0.140532 
933.546944  	0.140976 
935.475760  	0.141143 
937.404576  	0.141219 
939.333392  	0.141838 
941.262208  	0.143084 
943.191024  	0.145220 
945.119840  	0.148829 
947.048656  	0.153670 
948.977472  	0.159896 
950.906288  	0.166890 
952.835104  	0.174350 
954.763920  	0.181948 
956.692736  	0.188799 
958.621552  	0.194300 
960.550368  	0.197872 
962.479184  	0.199318 
964.408000  	0.197748 
966.336816  	0.193685 
968.265632  	0.186971 
970.194448  	0.178407 
972.123264  	0.168608 
974.052080  	0.158285 
975.980896  	0.148123 
977.909712  	0.138782 
979.838528  	0.130890 
981.767344  	0.124396 
983.696160  	0.119605 
985.624976  	0.116746 
987.553792  	0.116324 
989.482608  	0.118013 
991.411424  	0.121323 
993.340240  	0.126249 
995.269056  	0.132419 
997.197872  	0.138761 
999.126688  	0.144868 
1001.055504  	0.151071 
1002.984320  	0.156997 
1004.913136  	0.162627 
1006.841952  	0.167537 
1008.770768  	0.171422 
1010.699584  	0.173661 
1012.628400  	0.174652 
1014.557216  	0.174915 
1016.486032  	0.174931 
1018.414848  	0.174943 
1020.343664  	0.175252 
1022.272480  	0.175080 
1024.201296  	0.173627 
1026.130112  	0.168318 
1028.058928  	0.166365 
1029.987744  	0.171394 
1031.916560  	0.173133 
1033.845376  	0.172222 
1035.774192  	0.170027 
1037.703008  	0.169136 
1039.631824  	0.172897 
1041.560640  	0.177999 
1043.489456  	0.185045 
1045.418272  	0.194655 
1047.347088  	0.206670 
1049.275904  	0.219299 
1051.204720  	0.231380 
1053.133536  	0.241752 
1055.062352  	0.249322 
1056.991168  	0.252742 
1058.919984  	0.258301 
1060.848800  	0.263276 
1062.777616  	0.261104 
1064.706432  	0.251499 
1066.635248  	0.244625 
1068.564064  	0.246509 
1070.492880  	0.243818 
1072.421696  	0.235753 
1074.350512  	0.228842 
1076.279328  	0.224742 
1078.208144  	0.223396 
1080.136960  	0.224851 
1082.065776  	0.227326 
1083.994592  	0.229258 
1085.923408  	0.230572 
1087.852224  	0.230615 
1089.781040  	0.229935 
1091.709856  	0.229057 
1093.638672  	0.224959 
1095.567488  	0.217203 
1097.496304  	0.208329 
1099.425120  	0.198829 
1101.353936  	0.189000 
1103.282752  	0.179172 
1105.211568  	0.169619 
1107.140384  	0.160765 
1109.069200  	0.151973 
1110.998016  	0.143757 
1112.926832  	0.136139 
1114.855648  	0.128744 
1116.784464  	0.121426 
1118.713280  	0.114870 
1120.642096  	0.108786 
1122.570912  	0.102644 
1124.499728  	0.096739 
1126.428544  	0.091250 
1128.357360  	0.086156 
1130.286176  	0.081623 
1132.214992  	0.077887 
1134.143808  	0.074686 
1136.072624  	0.071749 
1138.001440  	0.068886 
1139.930256  	0.065901 
1141.859072  	0.063205 
1143.787888  	0.060685 
1145.716704  	0.058713 
1147.645520  	0.057115 
1149.574336  	0.055640 
1151.503152  	0.054257 
1153.431968  	0.053652 
1155.360784  	0.053784 
1157.289600  	0.054416 
1159.218416  	0.055271 
1161.147232  	0.056666 
1163.076048  	0.058048 
1165.004864  	0.059680 
1166.933680  	0.061375 
1168.862496  	0.063513 
1170.791312  	0.065837 
1172.720128  	0.068133 
1174.648944  	0.070416 
1176.577760  	0.072938 
1178.506576  	0.075339 
1180.435392  	0.077546 
1182.364208  	0.079652 
1184.293024  	0.082079 
1186.221840  	0.084705 
1188.150656  	0.087676 
1190.079472  	0.091178 
1192.008288  	0.095483 
1193.937104  	0.100597 
1195.865920  	0.106482 
1197.794736  	0.112657 
1199.723552  	0.119449 
1201.652368  	0.126441 
1203.581184  	0.133699 
1205.510000  	0.140786 
1207.438816  	0.147909 
1209.367632  	0.154736 
1211.296448  	0.161036 
1213.225264  	0.166548 
1215.154080  	0.170993 
1217.082896  	0.174189 
1219.011712  	0.176558 
1220.940528  	0.178546 
1222.869344  	0.180006 
1224.798160  	0.180789 
1226.726976  	0.181086 
1228.655792  	0.181101 
1230.584608  	0.180982 
1232.513424  	0.180547 
1234.442240  	0.179324 
1236.371056  	0.177539 
1238.299872  	0.174283 
1240.228688  	0.167181 
1242.157504  	0.160392 
1244.086320  	0.156204 
1246.015136  	0.149479 
1247.943952  	0.141003 
1249.872768  	0.132808 
1251.801584  	0.126496 
1253.730400  	0.120189 
1255.659216  	0.113994 
1257.588032  	0.108126 
1259.516848  	0.102746 
1261.445664  	0.097833 
1263.374480  	0.093534 
1265.303296  	0.089770 
1267.232112  	0.086904 
1269.160928  	0.084971 
1271.089744  	0.083576 
1273.018560  	0.082652 
1274.947376  	0.082323 
1276.876192  	0.082167 
1278.805008  	0.081534 
1280.733824  	0.080072 
1282.662640  	0.077632 
1284.591456  	0.074540 
1286.520272  	0.071610 
1288.449088  	0.069227 
1290.377904  	0.067265 
1292.306720  	0.065853 
1294.235536  	0.064288 
1296.164352  	0.061976 
1298.093168  	0.058844 
1300.021984  	0.055592 
1301.950800  	0.052441 
1303.879616  	0.049595 
1305.808432  	0.047108 
1307.737248  	0.045052 
1309.666064  	0.043092 
1311.594880  	0.042170 
1313.523696  	0.041693 
1315.452512  	0.041204 
1317.381328  	0.041211 
1319.310144  	0.041560 
1321.238960  	0.041813 
1323.167776  	0.042342 
1325.096592  	0.042965 
1327.025408  	0.043364 
1328.954224  	0.043210 
1330.883040  	0.042633 
1332.811856  	0.041763 
1334.740672  	0.041155 
1336.669488  	0.040998 
1338.598304  	0.041477 
1340.527120  	0.040514 
1342.455936  	0.038327 
1344.384752  	0.037569 
1346.313568  	0.037870 
1348.242384  	0.038781 
1350.171200  	0.040176 
1352.100016  	0.041803 
1354.028832  	0.043654 
1355.957648  	0.045459 
1357.886464  	0.047147 
1359.815280  	0.049063 
1361.744096  	0.051595 
1363.672912  	0.052569 
1365.601728  	0.051682 
1367.530544  	0.051637 
1369.459360  	0.051106 
1371.388176  	0.049311 
1373.316992  	0.047609 
1375.245808  	0.044550 
1377.174624  	0.040833 
1379.103440  	0.037555 
1381.032256  	0.034522 
1382.961072  	0.032579 
1384.889888  	0.032340 
1386.818704  	0.033445 
1388.747520  	0.032625 
1390.676336  	0.029069 
1392.605152  	0.023401 
1394.533968  	0.022291 
1396.462784  	0.028374 
1398.391600  	0.030352 
1400.320416  	0.029000 
1402.249232  	0.027290 
1404.178048  	0.027704 
1406.106864  	0.028397 
1408.035680  	0.029871 
1409.964496  	0.032856 
1411.893312  	0.036730 
1413.822128  	0.040390 
1415.750944  	0.044925 
1417.679760  	0.048885 
1419.608576  	0.050377 
1421.537392  	0.049514 
1423.466208  	0.049529 
1425.395024  	0.048316 
1427.323840  	0.046543 
1429.252656  	0.045376 
1431.181472  	0.044387 
1433.110288  	0.043770 
1435.039104  	0.044419 
1436.967920  	0.045359 
1438.896736  	0.044839 
1440.825552  	0.044716 
1442.754368  	0.045243 
1444.683184  	0.045427 
1446.612000  	0.045876 
1448.540816  	0.045478 
1450.469632  	0.044993 
1452.398448  	0.045509 
1454.327264  	0.046699 
1456.256080  	0.049543 
1458.184896  	0.051070 
1460.113712  	0.049562 
1462.042528  	0.049005 
1463.971344  	0.049927 
1465.900160  	0.052113 
1467.828976  	0.054066 
1469.757792  	0.056957 
1471.686608  	0.061943 
1473.615424  	0.068098 
1475.544240  	0.071410 
1477.473056  	0.073764 
1479.401872  	0.074936 
1481.330688  	0.076404 
1483.259504  	0.076773 
1485.188320  	0.076928 
1487.117136  	0.076792 
1489.045952  	0.076486 
1490.974768  	0.072771 
1492.903584  	0.067997 
1494.832400  	0.064694 
1496.761216  	0.061530 
1498.690032  	0.057575 
1500.618848  	0.054208 
1502.547664  	0.051059 
1504.476480  	0.048602 
1506.405296  	0.049614 
1508.334112  	0.050257 
1510.262928  	0.046743 
1512.191744  	0.044042 
1514.120560  	0.042980 
1516.049376  	0.044023 
1517.978192  	0.044417 
1519.907008  	0.045289 
1521.835824  	0.048319 
1523.764640  	0.050296 
1525.693456  	0.053151 
1527.622272  	0.055197 
1529.551088  	0.055444 
1531.479904  	0.055773 
1533.408720  	0.055525 
1535.337536  	0.053265 
1537.266352  	0.050674 
1539.195168  	0.048237 
1541.123984  	0.046404 
1543.052800  	0.045878 
1544.981616  	0.044300 
1546.910432  	0.041421 
1548.839248  	0.040925 
1550.768064  	0.041476 
1552.696880  	0.040645 
1554.625696  	0.041700 
1556.554512  	0.041995 
1558.483328  	0.044551 
1560.412144  	0.048537 
1562.340960  	0.049668 
1564.269776  	0.051943 
1566.198592  	0.056075 
1568.127408  	0.059763 
1570.056224  	0.065585 
1571.985040  	0.069684 
1573.913856  	0.072303 
1575.842672  	0.074561 
1577.771488  	0.076813 
1579.700304  	0.076505 
1581.629120  	0.076208 
1583.557936  	0.076148 
1585.486752  	0.077439 
1587.415568  	0.079943 
1589.344384  	0.084306 
1591.273200  	0.089476 
1593.202016  	0.095617 
1595.130832  	0.101605 
1597.059648  	0.107407 
1598.988464  	0.111934 
1600.917280  	0.115915 
1602.846096  	0.118321 
1604.774912  	0.119514 
1606.703728  	0.119236 
1608.632544  	0.118744 
1610.561360  	0.117436 
1612.490176  	0.116522 
1614.418992  	0.115753 
1616.347808  	0.116878 
1618.276624  	0.119392 
1620.205440  	0.122864 
1622.134256  	0.127076 
1624.063072  	0.134158 
1625.991888  	0.140448 
1627.920704  	0.148138 
1629.849520  	0.156238 
1631.778336  	0.163969 
1633.707152  	0.170592 
1635.635968  	0.179536 
1637.564784  	0.187519 
1639.493600  	0.192319 
1641.422416  	0.196130 
1643.351232  	0.199567 
1645.280048  	0.201544 
1647.208864  	0.203376 
1649.137680  	0.202664 
1651.066496  	0.201700 
1652.995312  	0.199619 
1654.924128  	0.197997 
1656.852944  	0.195245 
1658.781760  	0.192644 
1660.710576  	0.190379 
1662.639392  	0.187939 
1664.568208  	0.184836 
1666.497024  	0.182915 
1668.425840  	0.180863 
1670.354656  	0.178444 
1672.283472  	0.176399 
1674.212288  	0.175099 
1676.141104  	0.173876 
1678.069920  	0.173675 
1679.998736  	0.174315 
1681.927552  	0.174556 
1683.856368  	0.174310 
1685.785184  	0.173731 
1687.714000  	0.172977 
1689.642816  	0.171533 
1691.571632  	0.168913 
1693.500448  	0.166817 
1695.429264  	0.164134 
1697.358080  	0.160843 
1699.286896  	0.157401 
1701.215712  	0.151992 
1703.144528  	0.147772 
1705.073344  	0.142778 
1707.002160  	0.136401 
1708.930976  	0.130745 
1710.859792  	0.124813 
1712.788608  	0.118608 
1714.717424  	0.112679 
1716.646240  	0.105492 
1718.575056  	0.096377 
1720.503872  	0.087791 
1722.432688  	0.081178 
1724.361504  	0.073724 
1726.290320  	0.066971 
1728.219136  	0.061381 
1730.147952  	0.056794 
1732.076768  	0.051955 
1734.005584  	0.047160 
1735.934400  	0.041021 
1737.863216  	0.037341 
1739.792032  	0.033285 
1741.720848  	0.030555 
1743.649664  	0.028380 
1745.578480  	0.025861 
1747.507296  	0.023730 
1749.436112  	0.022914 
1751.364928  	0.021471 
1753.293744  	0.019155 
1755.222560  	0.017308 
1757.151376  	0.017010 
1759.080192  	0.015735 
1761.009008  	0.015375 
1762.937824  	0.014689 
1764.866640  	0.013819 
1766.795456  	0.013676 
1768.724272  	0.014053 
1770.653088  	0.012581 
1772.581904  	0.012495 
1774.510720  	0.012566 
1776.439536  	0.012295 
1778.368352  	0.011799 
1780.297168  	0.012146 
1782.225984  	0.011624 
1784.154800  	0.011448 
1786.083616  	0.011141 
1788.012432  	0.010667 
1789.941248  	0.010766 
1791.870064  	0.011598 
1793.798880  	0.011168 
1795.727696  	0.011097 
1797.656512  	0.010456 
1799.585328  	0.010311 
1801.514144  	0.010554 
1803.442960  	0.009870 
1805.371776  	0.009040 
1807.300592  	0.009188 
1809.229408  	0.008940 
1811.158224  	0.009194 
1813.087040  	0.008724 
1815.015856  	0.008206 
1816.944672  	0.008226 
1818.873488  	0.008546 
1820.802304  	0.008346 
1822.731120  	0.008613 
1824.659936  	0.009089 
1826.588752  	0.009146 
1828.517568  	0.008897 
1830.446384  	0.009566 
1832.375200  	0.008919 
1834.304016  	0.008400 
1836.232832  	0.008202 
1838.161648  	0.008683 
1840.090464  	0.008528 
1842.019280  	0.008812 
1843.948096  	0.009087 
1845.876912  	0.009293 
1847.805728  	0.008796 
1849.734544  	0.008332 
1851.663360  	0.007780 
1853.592176  	0.008020 
1855.520992  	0.007871 
1857.449808  	0.008197 
1859.378624  	0.008198 
1861.307440  	0.008229 
1863.236256  	0.007827 
1865.165072  	0.007966 
1867.093888  	0.008484 
1869.022704  	0.009680 
1870.951520  	0.008831 
1872.880336  	0.008048 
1874.809152  	0.007515 
1876.737968  	0.007429 
1878.666784  	0.007105 
1880.595600  	0.007236 
1882.524416  	0.007278 
1884.453232  	0.007423 
1886.382048  	0.007197 
1888.310864  	0.007769 
1890.239680  	0.008314 
1892.168496  	0.008216 
1894.097312  	0.007830 
1896.026128  	0.007874 
1897.954944  	0.007101 
1899.883760  	0.007131 
1901.812576  	0.006974 
1903.741392  	0.006982 
1905.670208  	0.006580 
1907.599024  	0.006723 
1909.527840  	0.006898 
1911.456656  	0.006994 
1913.385472  	0.006816 
1915.314288  	0.007189 
1917.243104  	0.007390 
1919.171920  	0.007529 
1921.100736  	0.007327 
1923.029552  	0.007892 
1924.958368  	0.006733 
1926.887184  	0.006455 
1928.816000  	0.005992 
1930.744816  	0.006025 
1932.673632  	0.005959 
1934.602448  	0.006568 
1936.531264  	0.007045 
1938.460080  	0.007024 
1940.388896  	0.006953 
1942.317712  	0.007747 
1944.246528  	0.007474 
1946.175344  	0.007589 
1948.104160  	0.006583 
1950.032976  	0.006614 
1951.961792  	0.007163 
1953.890608  	0.007234 
1955.819424  	0.006042 
1957.748240  	0.005968 
1959.677056  	0.006200 
1961.605872  	0.006425 
1963.534688  	0.006423 
1965.463504  	0.008032 
1967.392320  	0.007460 
1969.321136  	0.006732 
1971.249952  	0.006294 
1973.178768  	0.007467 
1975.107584  	0.006860 
1977.036400  	0.006891 
1978.965216  	0.008390 
1980.894032  	0.008491 
1982.822848  	0.006552 
1984.751664  	0.006988 
1986.680480  	0.007592 
1988.609296  	0.008569 
1990.538112  	0.008274 
1992.466928  	0.008049 
1994.395744  	0.006796 
1996.324560  	0.007300 
1998.253376  	0.007099 
2000.182192  	0.007988 
2002.111008  	0.007988 
2004.039824  	0.007675 
2005.968640  	0.006556 
2007.897456  	0.008072 
2009.826272  	0.008221 
2011.755088  	0.007292 
2013.683904  	0.007177 
2015.612720  	0.009171 
2017.541536  	0.009001 
2019.470352  	0.008218 
2021.399168  	0.007666 
2023.327984  	0.008376 
2025.256800  	0.007907 
2027.185616  	0.007330 
2029.114432  	0.007105 
2031.043248  	0.009149 
2032.972064  	0.008655 
2034.900880  	0.008740 
2036.829696  	0.008190 
2038.758512  	0.007939 
2040.687328  	0.008420 
2042.616144  	0.008953 
2044.544960  	0.007991 
2046.473776  	0.008408 
2048.402592  	0.008425 
2050.331408  	0.009478 
2052.260224  	0.008799 
2054.189040  	0.008384 
2056.117856  	0.007768 
2058.046672  	0.008303 
2059.975488  	0.007941 
2061.904304  	0.008073 
2063.833120  	0.008843 
2065.761936  	0.008818 
2067.690752  	0.007728 
2069.619568  	0.007548 
2071.548384  	0.006971 
2073.477200  	0.007074 
2075.406016  	0.007922 
2077.334832  	0.008649 
2079.263648  	0.008040 
2081.192464  	0.007884 
2083.121280  	0.008221 
2085.050096  	0.008293 
2086.978912  	0.008065 
2088.907728  	0.008142 
2090.836544  	0.007516 
2092.765360  	0.007014 
2094.694176  	0.007005 
2096.622992  	0.007178 
2098.551808  	0.007252 
2100.480624  	0.007524 
2102.409440  	0.007150 
2104.338256  	0.007747 
2106.267072  	0.007871 
2108.195888  	0.007956 
2110.124704  	0.008498 
2112.053520  	0.008676 
2113.982336  	0.007916 
2115.911152  	0.007863 
2117.839968  	0.007432 
2119.768784  	0.007074 
2121.697600  	0.006744 
2123.626416  	0.006517 
2125.555232  	0.006454 
2127.484048  	0.007103 
2129.412864  	0.006426 
2131.341680  	0.005394 
2133.270496  	0.006091 
2135.199312  	0.007461 
2137.128128  	0.007970 
2139.056944  	0.008090 
2140.985760  	0.007008 
2142.914576  	0.007631 
2144.843392  	0.007124 
2146.772208  	0.007610 
2148.701024  	0.008322 
2150.629840  	0.008624 
2152.558656  	0.006503 
2154.487472  	0.006183 
2156.416288  	0.006328 
2158.345104  	0.008201 
2160.273920  	0.011035 
2162.202736  	0.011855 
2164.131552  	0.011199 
2166.060368  	0.011796 
2167.989184  	0.010867 
2169.918000  	0.009611 
2171.846816  	0.008737 
2173.775632  	0.008763 
2175.704448  	0.009223 
2177.633264  	0.009935 
2179.562080  	0.009344 
2181.490896  	0.009022 
2183.419712  	0.009197 
2185.348528  	0.009892 
2187.277344  	0.009785 
2189.206160  	0.009916 
2191.134976  	0.009957 
2193.063792  	0.011072 
2194.992608  	0.010863 
2196.921424  	0.010093 
2198.850240  	0.009967 
2200.779056  	0.009464 
2202.707872  	0.009102 
2204.636688  	0.009439 
2206.565504  	0.009413 
2208.494320  	0.010032 
2210.423136  	0.009085 
2212.351952  	0.009085 
2214.280768  	0.009498 
2216.209584  	0.009526 
2218.138400  	0.008780 
2220.067216  	0.008576 
2221.996032  	0.008672 
2223.924848  	0.008414 
2225.853664  	0.008721 
2227.782480  	0.009465 
2229.711296  	0.009747 
2231.640112  	0.009510 
2233.568928  	0.009003 
2235.497744  	0.008937 
2237.426560  	0.008349 
2239.355376  	0.008377 
2241.284192  	0.008148 
2243.213008  	0.008155 
2245.141824  	0.008209 
2247.070640  	0.007943 
2248.999456  	0.007882 
2250.928272  	0.008330 
2252.857088  	0.008063 
2254.785904  	0.007886 
2256.714720  	0.008394 
2258.643536  	0.008978 
2260.572352  	0.008821 
2262.501168  	0.008526 
2264.429984  	0.008434 
2266.358800  	0.009036 
2268.287616  	0.008918 
2270.216432  	0.008561 
2272.145248  	0.008516 
2274.074064  	0.008510 
2276.002880  	0.008137 
2277.931696  	0.008519 
2279.860512  	0.008979 
2281.789328  	0.009388 
2283.718144  	0.009571 
2285.646960  	0.009714 
2287.575776  	0.009467 
2289.504592  	0.009219 
2291.433408  	0.009006 
2293.362224  	0.008993 
2295.291040  	0.008984 
2297.219856  	0.009373 
2299.148672  	0.009359 
2301.077488  	0.009210 
2303.006304  	0.009325 
2304.935120  	0.009404 
2306.863936  	0.009021 
2308.792752  	0.008759 
2310.721568  	0.008645 
2312.650384  	0.008125 
2314.579200  	0.007191 
2316.508016  	0.006452 
2318.436832  	0.005563 
2320.365648  	0.004772 
2322.294464  	0.003957 
2324.223280  	0.002710 
2326.152096  	0.000475 
2328.080912  	-0.001215 
2330.009728  	-0.002426 
2331.938544  	-0.003487 
2333.867360  	-0.004845 
2335.796176  	-0.005799 
2337.724992  	-0.006374 
2339.653808  	-0.006572 
2341.582624  	-0.006589 
2343.511440  	-0.005093 
2345.440256  	-0.002433 
2347.369072  	0.001255 
2349.297888  	0.001832 
2351.226704  	-0.001455 
2353.155520  	-0.005357 
2355.084336  	-0.008484 
2357.013152  	-0.010656 
2358.941968  	-0.011707 
2360.870784  	-0.012497 
2362.799600  	-0.011600 
2364.728416  	-0.010029 
2366.657232  	-0.007911 
2368.586048  	-0.005656 
2370.514864  	-0.002558 
2372.443680  	0.000543 
2374.372496  	0.003357 
2376.301312  	0.005384 
2378.230128  	0.007137 
2380.158944  	0.008131 
2382.087760  	0.008864 
2384.016576  	0.009186 
2385.945392  	0.009068 
2387.874208  	0.008739 
2389.803024  	0.008573 
2391.731840  	0.008355 
2393.660656  	0.008314 
2395.589472  	0.008511 
2397.518288  	0.008591 
2399.447104  	0.008562 
2401.375920  	0.008425 
2403.304736  	0.008416 
2405.233552  	0.008589 
2407.162368  	0.008775 
2409.091184  	0.008759 
2411.020000  	0.008659 
2412.948816  	0.008873 
2414.877632  	0.008908 
2416.806448  	0.009009 
2418.735264  	0.009267 
2420.664080  	0.009302 
2422.592896  	0.009047 
2424.521712  	0.008985 
2426.450528  	0.009140 
2428.379344  	0.009189 
2430.308160  	0.009120 
2432.236976  	0.009357 
2434.165792  	0.009571 
2436.094608  	0.009918 
2438.023424  	0.010247 
2439.952240  	0.010263 
2441.881056  	0.010115 
2443.809872  	0.010133 
2445.738688  	0.010197 
2447.667504  	0.010432 
2449.596320  	0.010414 
2451.525136  	0.010233 
2453.453952  	0.010143 
2455.382768  	0.010479 
2457.311584  	0.010847 
2459.240400  	0.010728 
2461.169216  	0.010480 
2463.098032  	0.010447 
2465.026848  	0.010363 
2466.955664  	0.010319 
2468.884480  	0.010239 
2470.813296  	0.010537 
2472.742112  	0.010592 
2474.670928  	0.010533 
2476.599744  	0.010615 
2478.528560  	0.010648 
2480.457376  	0.010734 
2482.386192  	0.010837 
2484.315008  	0.010941 
2486.243824  	0.011032 
2488.172640  	0.010963 
2490.101456  	0.011001 
2492.030272  	0.011230 
2493.959088  	0.011149 
2495.887904  	0.011055 
2497.816720  	0.011315 
2499.745536  	0.011346 
2501.674352  	0.011429 
2503.603168  	0.011517 
2505.531984  	0.011533 
2507.460800  	0.011565 
2509.389616  	0.011670 
2511.318432  	0.011542 
2513.247248  	0.011555 
2515.176064  	0.011679 
2517.104880  	0.011900 
2519.033696  	0.011921 
2520.962512  	0.012065 
2522.891328  	0.012331 
2524.820144  	0.012277 
2526.748960  	0.012064 
2528.677776  	0.012298 
2530.606592  	0.012316 
2532.535408  	0.012307 
2534.464224  	0.012487 
2536.393040  	0.012592 
2538.321856  	0.012544 
2540.250672  	0.012642 
2542.179488  	0.012600 
2544.108304  	0.012772 
2546.037120  	0.012798 
2547.965936  	0.013042 
2549.894752  	0.013207 
2551.823568  	0.013257 
2553.752384  	0.013269 
2555.681200  	0.013216 
2557.610016  	0.013277 
2559.538832  	0.013503 
2561.467648  	0.013578 
2563.396464  	0.013883 
2565.325280  	0.014272 
2567.254096  	0.014216 
2569.182912  	0.013975 
2571.111728  	0.013844 
2573.040544  	0.013693 
2574.969360  	0.013696 
2576.898176  	0.013916 
2578.826992  	0.014251 
2580.755808  	0.014205 
2582.684624  	0.014143 
2584.613440  	0.014205 
2586.542256  	0.014424 
2588.471072  	0.014625 
2590.399888  	0.014637 
2592.328704  	0.014611 
2594.257520  	0.014781 
2596.186336  	0.015139 
2598.115152  	0.015261 
2600.043968  	0.015133 
2601.972784  	0.015092 
2603.901600  	0.015094 
2605.830416  	0.015259 
2607.759232  	0.015273 
2609.688048  	0.015441 
2611.616864  	0.015563 
2613.545680  	0.015559 
2615.474496  	0.015635 
2617.403312  	0.015702 
2619.332128  	0.015796 
2621.260944  	0.016005 
2623.189760  	0.016041 
2625.118576  	0.016072 
2627.047392  	0.016171 
2628.976208  	0.016507 
2630.905024  	0.016673 
2632.833840  	0.016873 
2634.762656  	0.017030 
2636.691472  	0.017027 
2638.620288  	0.017030 
2640.549104  	0.017137 
2642.477920  	0.017229 
2644.406736  	0.017282 
2646.335552  	0.017505 
2648.264368  	0.017651 
2650.193184  	0.017756 
2652.122000  	0.017987 
2654.050816  	0.018145 
2655.979632  	0.018077 
2657.908448  	0.018113 
2659.837264  	0.018190 
2661.766080  	0.018127 
2663.694896  	0.018150 
2665.623712  	0.018144 
2667.552528  	0.018137 
2669.481344  	0.018342 
2671.410160  	0.018657 
2673.338976  	0.018820 
2675.267792  	0.018893 
2677.196608  	0.018971 
2679.125424  	0.019110 
2681.054240  	0.019095 
2682.983056  	0.019162 
2684.911872  	0.019430 
2686.840688  	0.019666 
2688.769504  	0.019731 
2690.698320  	0.019701 
2692.627136  	0.019802 
2694.555952  	0.019953 
2696.484768  	0.019923 
2698.413584  	0.020007 
2700.342400  	0.020173 
2702.271216  	0.020309 
2704.200032  	0.020450 
2706.128848  	0.020566 
2708.057664  	0.020640 
2709.986480  	0.020714 
2711.915296  	0.020778 
2713.844112  	0.020845 
2715.772928  	0.020997 
2717.701744  	0.021196 
2719.630560  	0.021164 
2721.559376  	0.021205 
2723.488192  	0.021264 
2725.417008  	0.021498 
2727.345824  	0.021713 
2729.274640  	0.021706 
2731.203456  	0.021690 
2733.132272  	0.021803 
2735.061088  	0.021938 
2736.989904  	0.022008 
2738.918720  	0.021946 
2740.847536  	0.021863 
2742.776352  	0.021938 
2744.705168  	0.022142 
2746.633984  	0.022161 
2748.562800  	0.022224 
2750.491616  	0.022326 
2752.420432  	0.022348 
2754.349248  	0.022345 
2756.278064  	0.022399 
2758.206880  	0.022440 
2760.135696  	0.022551 
2762.064512  	0.022477 
2763.993328  	0.022413 
2765.922144  	0.022466 
2767.850960  	0.022557 
2769.779776  	0.022588 
2771.708592  	0.022583 
2773.637408  	0.022568 
2775.566224  	0.022605 
2777.495040  	0.022545 
2779.423856  	0.022505 
2781.352672  	0.022616 
2783.281488  	0.022739 
2785.210304  	0.022749 
2787.139120  	0.022805 
2789.067936  	0.022894 
2790.996752  	0.022812 
2792.925568  	0.022851 
2794.854384  	0.022981 
2796.783200  	0.022933 
2798.712016  	0.022833 
2800.640832  	0.022722 
2802.569648  	0.022789 
2804.498464  	0.022859 
2806.427280  	0.022931 
2808.356096  	0.022974 
2810.284912  	0.023170 
2812.213728  	0.023211 
2814.142544  	0.023122 
2816.071360  	0.023068 
2818.000176  	0.022902 
2819.928992  	0.022666 
2821.857808  	0.022554 
2823.786624  	0.022339 
2825.715440  	0.022135 
2827.644256  	0.021907 
2829.573072  	0.021824 
2831.501888  	0.021510 
2833.430704  	0.021068 
2835.359520  	0.020721 
2837.288336  	0.020200 
2839.217152  	0.019714 
2841.145968  	0.019367 
2843.074784  	0.019031 
2845.003600  	0.018832 
2846.932416  	0.018808 
2848.861232  	0.018638 
2850.790048  	0.017946 
2852.718864  	0.016622 
2854.647680  	0.015123 
2856.576496  	0.013761 
2858.505312  	0.012356 
2860.434128  	0.010943 
2862.362944  	0.009408 
2864.291760  	0.007734 
2866.220576  	0.006298 
2868.149392  	0.005511 
2870.078208  	0.005146 
2872.007024  	0.004831 
2873.935840  	0.004509 
2875.864656  	0.004144 
2877.793472  	0.003608 
2879.722288  	0.002639 
2881.651104  	0.001198 
2883.579920  	0.000099 
2885.508736  	-0.000013 
2887.437552  	0.000387 
2889.366368  	0.000385 
2891.295184  	-0.000251 
2893.224000  	-0.000698 
2895.152816  	-0.000643 
2897.081632  	-0.001386 
2899.010448  	-0.004542 
2900.939264  	-0.007186 
2902.868080  	-0.004976 
2904.796896  	-0.002546 
2906.725712  	-0.001548 
2908.654528  	-0.000723 
2910.583344  	0.000010 
2912.512160  	0.001720 
2914.440976  	0.004319 
2916.369792  	0.006022 
2918.298608  	0.006737 
2920.227424  	0.007102 
2922.156240  	0.007602 
2924.085056  	0.008241 
2926.013872  	0.008993 
2927.942688  	0.009884 
2929.871504  	0.010921 
2931.800320  	0.011776 
2933.729136  	0.012130 
2935.657952  	0.012276 
2937.586768  	0.012703 
2939.515584  	0.012863 
2941.444400  	0.012586 
2943.373216  	0.012289 
2945.302032  	0.012179 
2947.230848  	0.012140 
2949.159664  	0.011420 
2951.088480  	0.010171 
2953.017296  	0.009173 
2954.946112  	0.007946 
2956.874928  	0.006473 
2958.803744  	0.005024 
2960.732560  	0.003749 
2962.661376  	0.002630 
2964.590192  	0.000957 
2966.519008  	-0.001358 
2968.447824  	-0.003408 
2970.376640  	-0.004905 
2972.305456  	-0.005825 
2974.234272  	-0.005529 
2976.163088  	-0.005119 
2978.091904  	-0.004987 
2980.020720  	-0.004925 
2981.949536  	-0.004798 
2983.878352  	-0.005640 
2985.807168  	-0.007591 
2987.735984  	-0.009087 
2989.664800  	-0.008064 
2991.593616  	-0.002252 
2993.522432  	0.001009 
2995.451248  	0.001764 
2997.380064  	0.003272 
2999.308880  	0.005410 
3001.237696  	0.007668 
3003.166512  	0.010050 
3005.095328  	0.012438 
3007.024144  	0.014920 
3008.952960  	0.017438 
3010.881776  	0.019934 
3012.810592  	0.022292 
3014.739408  	0.024264 
3016.668224  	0.026227 
3018.597040  	0.028226 
3020.525856  	0.030051 
3022.454672  	0.031890 
3024.383488  	0.033645 
3026.312304  	0.035197 
3028.241120  	0.036548 
3030.169936  	0.037828 
3032.098752  	0.039390 
3034.027568  	0.040353 
3035.956384  	0.041033 
3037.885200  	0.042021 
3039.814016  	0.043088 
3041.742832  	0.043967 
3043.671648  	0.044636 
3045.600464  	0.045218 
3047.529280  	0.045839 
3049.458096  	0.046407 
3051.386912  	0.046718 
3053.315728  	0.047181 
3055.244544  	0.047868 
3057.173360  	0.048510 
3059.102176  	0.048869 
3061.030992  	0.049225 
3062.959808  	0.049770 
3064.888624  	0.050455 
3066.817440  	0.051064 
3068.746256  	0.051387 
3070.675072  	0.051644 
3072.603888  	0.052295 
3074.532704  	0.052996 
3076.461520  	0.053485 
3078.390336  	0.053842 
3080.319152  	0.054408 
3082.247968  	0.055071 
3084.176784  	0.055555 
3086.105600  	0.055855 
3088.034416  	0.056306 
3089.963232  	0.056939 
3091.892048  	0.057463 
3093.820864  	0.057836 
3095.749680  	0.058318 
3097.678496  	0.058655 
3099.607312  	0.059044 
3101.536128  	0.059532 
3103.464944  	0.060147 
3105.393760  	0.060792 
3107.322576  	0.061413 
3109.251392  	0.061832 
3111.180208  	0.062225 
3113.109024  	0.062641 
3115.037840  	0.062978 
3116.966656  	0.063347 
3118.895472  	0.063844 
3120.824288  	0.064117 
3122.753104  	0.064402 
3124.681920  	0.064735 
3126.610736  	0.064998 
3128.539552  	0.065381 
3130.468368  	0.065636 
3132.397184  	0.065987 
3134.326000  	0.066351 
3136.254816  	0.066527 
3138.183632  	0.066935 
3140.112448  	0.067215 
3142.041264  	0.067474 
3143.970080  	0.067881 
3145.898896  	0.068298 
3147.827712  	0.068581 
3149.756528  	0.068807 
3151.685344  	0.069272 
3153.614160  	0.069918 
3155.542976  	0.070218 
3157.471792  	0.070522 
3159.400608  	0.071098 
3161.329424  	0.071528 
3163.258240  	0.071866 
3165.187056  	0.072139 
3167.115872  	0.072384 
3169.044688  	0.072696 
3170.973504  	0.072950 
3172.902320  	0.073190 
3174.831136  	0.073481 
3176.759952  	0.073938 
3178.688768  	0.074167 
3180.617584  	0.074115 
3182.546400  	0.074006 
3184.475216  	0.074331 
3186.404032  	0.074529 
3188.332848  	0.074639 
3190.261664  	0.074857 
3192.190480  	0.074807 
3194.119296  	0.074661 
3196.048112  	0.074580 
3197.976928  	0.074786 
3199.905744  	0.074864 
3201.834560  	0.074820 
3203.763376  	0.074831 
3205.692192  	0.074621 
3207.621008  	0.074274 
3209.549824  	0.074108 
3211.478640  	0.074076 
3213.407456  	0.074009 
3215.336272  	0.073883 
3217.265088  	0.073743 
3219.193904  	0.073474 
3221.122720  	0.073026 
3223.051536  	0.072725 
3224.980352  	0.072541 
3226.909168  	0.072235 
3228.837984  	0.071973 
3230.766800  	0.071962 
3232.695616  	0.072046 
3234.624432  	0.071997 
3236.553248  	0.071797 
3238.482064  	0.071587 
3240.410880  	0.071520 
3242.339696  	0.071556 
3244.268512  	0.071619 
3246.197328  	0.071612 
3248.126144  	0.071450 
3250.054960  	0.071407 
3251.983776  	0.071472 
3253.912592  	0.071786 
3255.841408  	0.071914 
3257.770224  	0.072093 
3259.699040  	0.072228 
3261.627856  	0.072387 
3263.556672  	0.072541 
3265.485488  	0.072496 
3267.414304  	0.072681 
3269.343120  	0.072884 
3271.271936  	0.073032 
3273.200752  	0.073345 
3275.129568  	0.073619 
3277.058384  	0.073741 
3278.987200  	0.073801 
3280.916016  	0.073831 
3282.844832  	0.073878 
3284.773648  	0.073931 
3286.702464  	0.074112 
3288.631280  	0.074403 
3290.560096  	0.074747 
3292.488912  	0.075138 
3294.417728  	0.075216 
3296.346544  	0.075392 
3298.275360  	0.075586 
3300.204176  	0.075879 
3302.132992  	0.076179 
3304.061808  	0.076602 
3305.990624  	0.076993 
3307.919440  	0.077216 
3309.848256  	0.077301 
3311.777072  	0.077312 
3313.705888  	0.077510 
3315.634704  	0.077978 
3317.563520  	0.078304 
3319.492336  	0.078409 
3321.421152  	0.078546 
3323.349968  	0.078860 
3325.278784  	0.079140 
3327.207600  	0.079207 
3329.136416  	0.079260 
3331.065232  	0.079221 
3332.994048  	0.079236 
3334.922864  	0.079279 
3336.851680  	0.079329 
3338.780496  	0.079229 
3340.709312  	0.078911 
3342.638128  	0.078725 
3344.566944  	0.078651 
3346.495760  	0.078480 
3348.424576  	0.078255 
3350.353392  	0.077967 
3352.282208  	0.077703 
3354.211024  	0.077569 
3356.139840  	0.077356 
3358.068656  	0.076931 
3359.997472  	0.076427 
3361.926288  	0.075931 
3363.855104  	0.075524 
3365.783920  	0.075398 
3367.712736  	0.075241 
3369.641552  	0.074830 
3371.570368  	0.074250 
3373.499184  	0.073665 
3375.428000  	0.073207 
3377.356816  	0.072950 
3379.285632  	0.072580 
3381.214448  	0.072284 
3383.143264  	0.072065 
3385.072080  	0.071854 
3387.000896  	0.071342 
3388.929712  	0.070940 
3390.858528  	0.070717 
3392.787344  	0.070494 
3394.716160  	0.069864 
3396.644976  	0.069470 
3398.573792  	0.069056 
3400.502608  	0.068346 
3402.431424  	0.067873 
3404.360240  	0.067444 
3406.289056  	0.067019 
3408.217872  	0.066722 
3410.146688  	0.066396 
3412.075504  	0.066236 
3414.004320  	0.065878 
3415.933136  	0.065219 
3417.861952  	0.064822 
3419.790768  	0.064699 
3421.719584  	0.064399 
3423.648400  	0.063753 
3425.577216  	0.063355 
3427.506032  	0.063045 
3429.434848  	0.062350 
3431.363664  	0.061821 
3433.292480  	0.061608 
3435.221296  	0.061411 
3437.150112  	0.060950 
3439.078928  	0.060550 
3441.007744  	0.060157 
3442.936560  	0.059735 
3444.865376  	0.059188 
3446.794192  	0.058664 
3448.723008  	0.058068 
3450.651824  	0.057279 
3452.580640  	0.056708 
3454.509456  	0.056303 
3456.438272  	0.055721 
3458.367088  	0.055246 
3460.295904  	0.054986 
3462.224720  	0.054404 
3464.153536  	0.053582 
3466.082352  	0.053287 
3468.011168  	0.052857 
3469.939984  	0.052042 
3471.868800  	0.051249 
3473.797616  	0.050669 
3475.726432  	0.050022 
3477.655248  	0.049216 
3479.584064  	0.048838 
3481.512880  	0.048790 
3483.441696  	0.048081 
3485.370512  	0.046939 
3487.299328  	0.046528 
3489.228144  	0.046107 
3491.156960  	0.045162 
3493.085776  	0.044535 
3495.014592  	0.044120 
3496.943408  	0.043720 
3498.872224  	0.043210 
3500.801040  	0.043153 
3502.729856  	0.043251 
3504.658672  	0.042481 
3506.587488  	0.041032 
3508.516304  	0.040557 
3510.445120  	0.040379 
3512.373936  	0.039825 
3514.302752  	0.039212 
3516.231568  	0.038544 
3518.160384  	0.038151 
3520.089200  	0.037981 
3522.018016  	0.037999 
3523.946832  	0.038033 
3525.875648  	0.037472 
3527.804464  	0.036808 
3529.733280  	0.036164 
3531.662096  	0.035419 
3533.590912  	0.034712 
3535.519728  	0.034552 
3537.448544  	0.034320 
3539.377360  	0.033543 
3541.306176  	0.032975 
3543.234992  	0.033103 
3545.163808  	0.034040 
3547.092624  	0.033749 
3549.021440  	0.031979 
3550.950256  	0.030902 
3552.879072  	0.030988 
3554.807888  	0.030464 
3556.736704  	0.029505 
3558.665520  	0.029189 
3560.594336  	0.029367 
3562.523152  	0.028936 
3564.451968  	0.029217 
3566.380784  	0.030811 
3568.309600  	0.030408 
3570.238416  	0.027728 
3572.167232  	0.026003 
3574.096048  	0.025245 
3576.024864  	0.024827 
3577.953680  	0.024489 
3579.882496  	0.024348 
3581.811312  	0.023963 
3583.740128  	0.023297 
3585.668944  	0.023424 
3587.597760  	0.024865 
3589.526576  	0.023419 
3591.455392  	0.020673 
3593.384208  	0.020254 
3595.313024  	0.020342 
3597.241840  	0.019530 
3599.170656  	0.018370 
3601.099472  	0.017716 
3603.028288  	0.017109 
3604.957104  	0.016503 
3606.885920  	0.016374 
3608.814736  	0.016791 
3610.743552  	0.015851 
3612.672368  	0.015157 
3614.601184  	0.014737 
3616.530000  	0.013153 
3618.458816  	0.012780 
3620.387632  	0.012521 
3622.316448  	0.010392 
3624.245264  	0.008732 
3626.174080  	0.007843 
3628.102896  	0.008258 
3630.031712  	0.009706 
3631.960528  	0.007309 
3633.889344  	0.005589 
3635.818160  	0.004269 
3637.746976  	0.003100 
3639.675792  	0.002485 
3641.604608  	0.001658 
3643.533424  	0.000599 
3645.462240  	-0.000881 
3647.391056  	-0.001021 
3649.319872  	-0.000831 
3651.248688  	-0.001139 
3653.177504  	-0.004003 
3655.106320  	-0.006556 
3657.035136  	-0.007052 
3658.963952  	-0.008308 
3660.892768  	-0.009718 
3662.821584  	-0.010400 
3664.750400  	-0.010442 
3666.679216  	-0.011138 
3668.608032  	-0.011614 
3670.536848  	-0.010006 
3672.465664  	-0.010337 
3674.394480  	-0.012689 
3676.323296  	-0.010911 
3678.252112  	-0.008995 
3680.180928  	-0.008698 
3682.109744  	-0.009979 
3684.038560  	-0.011209 
3685.967376  	-0.012153 
3687.896192  	-0.012169 
3689.825008  	-0.010240 
3691.753824  	-0.009279 
3693.682640  	-0.009324 
3695.611456  	-0.009227 
3697.540272  	-0.008271 
3699.469088  	-0.007838 
3701.397904  	-0.006189 
3703.326720  	-0.004757 
3705.255536  	-0.005067 
3707.184352  	-0.005370 
3709.113168  	-0.004952 
3711.041984  	-0.003049 
3712.970800  	-0.000983 
3714.899616  	-0.001267 
3716.828432  	-0.002535 
3718.757248  	-0.002947 
3720.686064  	-0.002991 
3722.614880  	-0.001981 
3724.543696  	-0.001171 
3726.472512  	-0.000753 
3728.401328  	-0.001804 
3730.330144  	-0.003911 
3732.258960  	-0.003566 
3734.187776  	-0.000414 
3736.116592  	0.002145 
3738.045408  	0.000354 
3739.974224  	-0.001395 
3741.903040  	-0.002328 
3743.831856  	-0.001485 
3745.760672  	0.001303 
3747.689488  	-0.001337 
3749.618304  	-0.002271 
3751.547120  	-0.000465 
3753.475936  	0.000623 
3755.404752  	-0.000965 
3757.333568  	-0.001954 
3759.262384  	-0.001503 
3761.191200  	-0.001144 
3763.120016  	-0.001925 
3765.048832  	-0.001765 
3766.977648  	-0.001520 
3768.906464  	-0.002090 
3770.835280  	-0.001136 
3772.764096  	-0.001360 
3774.692912  	-0.002075 
3776.621728  	-0.002833 
3778.550544  	-0.002799 
3780.479360  	-0.001599 
3782.408176  	-0.001925 
3784.336992  	-0.002194 
3786.265808  	-0.001928 
3788.194624  	-0.002071 
3790.123440  	-0.002416 
3792.052256  	-0.002605 
3793.981072  	-0.002930 
3795.909888  	-0.002600 
3797.838704  	-0.001836 
3799.767520  	-0.003097 
3801.696336  	-0.001905 
3803.625152  	-0.001120 
3805.553968  	-0.002915 
3807.482784  	-0.001790 
3809.411600  	-0.001243 
3811.340416  	-0.001960 
3813.269232  	-0.002833 
3815.198048  	-0.003212 
3817.126864  	-0.001672 
3819.055680  	-0.002631 
3820.984496  	-0.001681 
3822.913312  	0.000100 
3824.842128  	-0.001603 
3826.770944  	-0.002025 
3828.699760  	-0.002115 
3830.628576  	-0.002745 
3832.557392  	-0.002339 
3834.486208  	-0.002745 
3836.415024  	-0.003082 
3838.343840  	-0.001571 
3840.272656  	-0.000577 
3842.201472  	-0.001101 
3844.130288  	-0.001388 
3846.059104  	-0.001873 
3847.987920  	-0.002598 
3849.916736  	-0.003235 
3851.845552  	-0.003767 
3853.774368  	-0.000197 
3855.703184  	0.000760 
3857.632000  	-0.001120 
3859.560816  	-0.002458 
3861.489632  	-0.002541 
3863.418448  	-0.001793 
3865.347264  	-0.000866 
3867.276080  	-0.001735 
3869.204896  	-0.001600 
3871.133712  	0.000541 
3873.062528  	-0.000997 
3874.991344  	-0.001087 
3876.920160  	-0.002070 
3878.848976  	-0.002525 
3880.777792  	-0.000612 
3882.706608  	-0.000634 
3884.635424  	-0.001382 
3886.564240  	-0.000255 
3888.493056  	-0.001720 
3890.421872  	-0.002205 
3892.350688  	-0.000741 
3894.279504  	-0.001258 
3896.208320  	-0.002147 
3898.137136  	-0.001883 
3900.065952  	-0.000437 
3901.994768  	0.000249 
3903.923584  	0.000644 
3905.852400  	0.000431 
3907.781216  	-0.001339 
3909.710032  	-0.002464 
3911.638848  	-0.002485 
3913.567664  	-0.002555 
3915.496480  	-0.002021 
3917.425296  	-0.000359 
3919.354112  	-0.000373 
3921.282928  	-0.001006 
3923.211744  	-0.001285 
3925.140560  	-0.000948 
3927.069376  	-0.001513 
3928.998192  	-0.001751 
3930.927008  	-0.000811 
3932.855824  	-0.000064 
3934.784640  	-0.001053 
3936.713456  	-0.001775 
3938.642272  	-0.001817 
3940.571088  	-0.001940 
3942.499904  	-0.000740 
3944.428720  	-0.000406 
3946.357536  	-0.001144 
3948.286352  	-0.000726 
3950.215168  	-0.000989 
3952.143984  	-0.001836 
3954.072800  	-0.002204 
3956.001616  	-0.002125 
3957.930432  	-0.001946 
3959.859248  	-0.001721 
3961.788064  	-0.001514 
3963.716880  	-0.001641 
3965.645696  	-0.002132 
3967.574512  	-0.001929 
3969.503328  	-0.001828 
3971.432144  	-0.002098 
3973.360960  	-0.002091 
3975.289776  	-0.001722 
3977.218592  	-0.001677 
3979.147408  	-0.001874 
3981.076224  	-0.002058 
3983.005040  	-0.002245 
3984.933856  	-0.002285 
3986.862672  	-0.002151 
3988.791488  	-0.002118 
3990.720304  	-0.001935 
3992.649120  	-0.001863 
3994.577936  	-0.001911 
3996.506752  	-0.002069 
3998.435568  	-0.002201 
4000.364384  	-0.002197 