##TITLE=No Description
##DATA TYPE=INFRARED SPECTRUM
##XUNITS=1/CM
##YUNITS=Abs
399.264912  	0.561089 
401.193728  	0.565111 
403.122544  	0.568414 
405.051360  	0.563890 
406.980176  	0.566792 
408.908992  	0.566671 
410.837808  	0.561064 
412.766624  	0.562406 
414.695440  	0.573988 
416.624256  	0.558780 
418.553072  	0.548025 
420.481888  	0.543587 
422.410704  	0.543262 
424.339520  	0.533270 
426.268336  	0.536968 
428.197152  	0.535520 
430.125968  	0.539194 
432.054784  	0.534488 
433.983600  	0.528420 
435.912416  	0.522038 
437.841232  	0.523446 
439.770048  	0.519317 
441.698864  	0.519386 
443.627680  	0.518922 
445.556496  	0.517263 
447.485312  	0.512404 
449.414128  	0.509133 
451.342944  	0.503772 
453.271760  	0.507220 
455.200576  	0.509721 
457.129392  	0.507962 
459.058208  	0.504885 
460.987024  	0.510550 
462.915840  	0.511960 
464.844656  	0.513844 
466.773472  	0.509060 
468.702288  	0.509404 
470.631104  	0.511660 
472.559920  	0.509840 
474.488736  	0.506191 
476.417552  	0.511930 
478.346368  	0.511631 
480.275184  	0.512567 
482.204000  	0.510143 
484.132816  	0.509663 
486.061632  	0.503833 
487.990448  	0.501702 
489.919264  	0.499675 
491.848080  	0.501297 
493.776896  	0.500290 
495.705712  	0.499772 
497.634528  	0.498451 
499.563344  	0.499979 
501.492160  	0.497654 
503.420976  	0.496364 
505.349792  	0.495677 
507.278608  	0.496178 
509.207424  	0.495173 
511.136240  	0.495636 
513.065056  	0.499211 
514.993872  	0.500726 
516.922688  	0.499189 
518.851504  	0.501130 
520.780320  	0.500854 
522.709136  	0.500605 
524.637952  	0.497588 
526.566768  	0.495445 
528.495584  	0.495233 
530.424400  	0.493645 
532.353216  	0.489094 
534.282032  	0.484238 
536.210848  	0.477789 
538.139664  	0.474693 
540.068480  	0.470707 
541.997296  	0.467646 
543.926112  	0.463380 
545.854928  	0.460187 
547.783744  	0.456073 
549.712560  	0.451425 
551.641376  	0.447033 
553.570192  	0.444569 
555.499008  	0.441294 
557.427824  	0.437995 
559.356640  	0.433214 
561.285456  	0.430846 
563.214272  	0.428314 
565.143088  	0.424702 
567.071904  	0.419872 
569.000720  	0.415768 
570.929536  	0.411645 
572.858352  	0.408055 
574.787168  	0.404998 
576.715984  	0.401744 
578.644800  	0.397344 
580.573616  	0.393750 
582.502432  	0.389300 
584.431248  	0.386185 
586.360064  	0.383000 
588.288880  	0.381215 
590.217696  	0.379412 
592.146512  	0.377365 
594.075328  	0.374906 
596.004144  	0.372709 
597.932960  	0.371056 
599.861776  	0.370532 
601.790592  	0.370394 
603.719408  	0.369854 
605.648224  	0.368159 
607.577040  	0.367781 
609.505856  	0.367117 
611.434672  	0.366248 
613.363488  	0.363672 
615.292304  	0.361687 
617.221120  	0.360216 
619.149936  	0.359210 
621.078752  	0.356575 
623.007568  	0.353807 
624.936384  	0.352126 
626.865200  	0.351203 
628.794016  	0.349928 
630.722832  	0.348536 
632.651648  	0.347560 
634.580464  	0.348150 
636.509280  	0.349087 
638.438096  	0.348728 
640.366912  	0.347898 
642.295728  	0.346189 
644.224544  	0.343044 
646.153360  	0.339984 
648.082176  	0.336622 
650.010992  	0.333472 
651.939808  	0.329578 
653.868624  	0.325512 
655.797440  	0.321822 
657.726256  	0.318467 
659.655072  	0.314127 
661.583888  	0.310141 
663.512704  	0.306643 
665.441520  	0.303667 
667.370336  	0.299244 
669.299152  	0.295306 
671.227968  	0.293914 
673.156784  	0.291037 
675.085600  	0.289021 
677.014416  	0.287394 
678.943232  	0.285728 
680.872048  	0.284334 
682.800864  	0.282359 
684.729680  	0.280960 
686.658496  	0.279288 
688.587312  	0.277290 
690.516128  	0.275504 
692.444944  	0.274584 
694.373760  	0.273445 
696.302576  	0.271756 
698.231392  	0.269284 
700.160208  	0.267006 
702.089024  	0.264524 
704.017840  	0.262674 
705.946656  	0.260333 
707.875472  	0.257354 
709.804288  	0.254986 
711.733104  	0.253596 
713.661920  	0.252353 
715.590736  	0.251479 
717.519552  	0.251234 
719.448368  	0.252179 
721.377184  	0.253745 
723.306000  	0.254771 
725.234816  	0.254638 
727.163632  	0.253243 
729.092448  	0.250919 
731.021264  	0.248473 
732.950080  	0.245785 
734.878896  	0.242680 
736.807712  	0.240051 
738.736528  	0.238315 
740.665344  	0.236668 
742.594160  	0.235172 
744.522976  	0.233776 
746.451792  	0.232677 
748.380608  	0.231939 
750.309424  	0.231632 
752.238240  	0.231035 
754.167056  	0.230618 
756.095872  	0.230040 
758.024688  	0.229337 
759.953504  	0.228930 
761.882320  	0.229150 
763.811136  	0.229383 
765.739952  	0.229011 
767.668768  	0.228122 
769.597584  	0.227207 
771.526400  	0.227555 
773.455216  	0.229820 
775.384032  	0.233102 
777.312848  	0.237456 
779.241664  	0.241588 
781.170480  	0.242779 
783.099296  	0.239818 
785.028112  	0.234325 
786.956928  	0.228017 
788.885744  	0.222367 
790.814560  	0.218127 
792.743376  	0.215658 
794.672192  	0.214025 
796.601008  	0.213123 
798.529824  	0.211703 
800.458640  	0.208486 
802.387456  	0.205238 
804.316272  	0.203920 
806.245088  	0.203426 
808.173904  	0.203328 
810.102720  	0.203631 
812.031536  	0.203816 
813.960352  	0.203813 
815.889168  	0.203791 
817.817984  	0.203875 
819.746800  	0.204176 
821.675616  	0.204050 
823.604432  	0.203723 
825.533248  	0.203087 
827.462064  	0.202236 
829.390880  	0.200972 
831.319696  	0.199789 
833.248512  	0.198493 
835.177328  	0.196536 
837.106144  	0.193944 
839.034960  	0.191062 
840.963776  	0.188097 
842.892592  	0.185384 
844.821408  	0.182582 
846.750224  	0.179628 
848.679040  	0.177062 
850.607856  	0.174787 
852.536672  	0.173020 
854.465488  	0.171250 
856.394304  	0.169645 
858.323120  	0.168214 
860.251936  	0.166705 
862.180752  	0.164787 
864.109568  	0.162735 
866.038384  	0.161009 
867.967200  	0.159383 
869.896016  	0.158031 
871.824832  	0.156844 
873.753648  	0.156036 
875.682464  	0.156090 
877.611280  	0.156753 
879.540096  	0.157413 
881.468912  	0.158287 
883.397728  	0.158870 
885.326544  	0.159114 
887.255360  	0.158995 
889.184176  	0.158515 
891.112992  	0.157359 
893.041808  	0.155730 
894.970624  	0.153550 
896.899440  	0.150693 
898.828256  	0.147042 
900.757072  	0.143516 
902.685888  	0.140563 
904.614704  	0.138640 
906.543520  	0.138018 
908.472336  	0.138917 
910.401152  	0.141119 
912.329968  	0.144209 
914.258784  	0.147558 
916.187600  	0.150701 
918.116416  	0.152939 
920.045232  	0.153919 
921.974048  	0.153972 
923.902864  	0.153473 
925.831680  	0.152329 
927.760496  	0.151169 
929.689312  	0.150469 
931.618128  	0.150712 
933.546944  	0.151477 
935.475760  	0.152012 
937.404576  	0.152400 
939.333392  	0.153463 
941.262208  	0.155247 
943.191024  	0.157936 
945.119840  	0.161931 
947.048656  	0.167212 
948.977472  	0.173670 
950.906288  	0.181050 
952.835104  	0.188972 
954.763920  	0.196925 
956.692736  	0.204444 
958.621552  	0.210863 
960.550368  	0.215104 
962.479184  	0.216886 
964.408000  	0.215541 
966.336816  	0.211624 
968.265632  	0.204889 
970.194448  	0.196309 
972.123264  	0.186223 
974.052080  	0.175449 
975.980896  	0.165156 
977.909712  	0.155872 
979.838528  	0.148043 
981.767344  	0.141666 
983.696160  	0.137378 
985.624976  	0.135482 
987.553792  	0.135879 
989.482608  	0.138629 
991.411424  	0.143568 
993.340240  	0.150236 
995.269056  	0.158328 
997.197872  	0.167028 
999.126688  	0.175290 
1001.055504  	0.183532 
1002.984320  	0.191403 
1004.913136  	0.198762 
1006.841952  	0.205094 
1008.770768  	0.210236 
1010.699584  	0.214073 
1012.628400  	0.216690 
1014.557216  	0.218272 
1016.486032  	0.219198 
1018.414848  	0.219781 
1020.343664  	0.220308 
1022.272480  	0.220668 
1024.201296  	0.220821 
1026.130112  	0.220132 
1028.058928  	0.220678 
1029.987744  	0.222649 
1031.916560  	0.225256 
1033.845376  	0.228176 
1035.774192  	0.231280 
1037.703008  	0.235477 
1039.631824  	0.241788 
1041.560640  	0.249638 
1043.489456  	0.259918 
1045.418272  	0.272205 
1047.347088  	0.287108 
1049.275904  	0.302649 
1051.204720  	0.317658 
1053.133536  	0.329758 
1055.062352  	0.338832 
1056.991168  	0.343440 
1058.919984  	0.345757 
1060.848800  	0.345516 
1062.777616  	0.342908 
1064.706432  	0.337313 
1066.635248  	0.330646 
1068.564064  	0.324216 
1070.492880  	0.317665 
1072.421696  	0.309930 
1074.350512  	0.303136 
1076.279328  	0.297224 
1078.208144  	0.292550 
1080.136960  	0.288745 
1082.065776  	0.285574 
1083.994592  	0.281773 
1085.923408  	0.277910 
1087.852224  	0.273103 
1089.781040  	0.267747 
1091.709856  	0.261119 
1093.638672  	0.252704 
1095.567488  	0.242809 
1097.496304  	0.232858 
1099.425120  	0.222042 
1101.353936  	0.211183 
1103.282752  	0.200656 
1105.211568  	0.190135 
1107.140384  	0.179355 
1109.069200  	0.169163 
1110.998016  	0.160092 
1112.926832  	0.151559 
1114.855648  	0.143169 
1116.784464  	0.135145 
1118.713280  	0.128046 
1120.642096  	0.121526 
1122.570912  	0.115025 
1124.499728  	0.108943 
1126.428544  	0.103321 
1128.357360  	0.097957 
1130.286176  	0.093007 
1132.214992  	0.088767 
1134.143808  	0.085045 
1136.072624  	0.081620 
1138.001440  	0.078491 
1139.930256  	0.075346 
1141.859072  	0.072630 
1143.787888  	0.070108 
1145.716704  	0.068179 
1147.645520  	0.066754 
1149.574336  	0.065805 
1151.503152  	0.065087 
1153.431968  	0.064873 
1155.360784  	0.064947 
1157.289600  	0.065423 
1159.218416  	0.066359 
1161.147232  	0.067629 
1163.076048  	0.068839 
1165.004864  	0.070499 
1166.933680  	0.072206 
1168.862496  	0.074367 
1170.791312  	0.076949 
1172.720128  	0.079521 
1174.648944  	0.082129 
1176.577760  	0.085024 
1178.506576  	0.087873 
1180.435392  	0.090776 
1182.364208  	0.093650 
1184.293024  	0.096828 
1186.221840  	0.100197 
1188.150656  	0.103986 
1190.079472  	0.108354 
1192.008288  	0.113297 
1193.937104  	0.118822 
1195.865920  	0.125051 
1197.794736  	0.131666 
1199.723552  	0.139058 
1201.652368  	0.146679 
1203.581184  	0.154189 
1205.510000  	0.161646 
1207.438816  	0.168947 
1209.367632  	0.175853 
1211.296448  	0.182137 
1213.225264  	0.187669 
1215.154080  	0.192095 
1217.082896  	0.195737 
1219.011712  	0.198442 
1220.940528  	0.200594 
1222.869344  	0.202091 
1224.798160  	0.203053 
1226.726976  	0.203217 
1228.655792  	0.202825 
1230.584608  	0.201610 
1232.513424  	0.199685 
1234.442240  	0.196639 
1236.371056  	0.192837 
1238.299872  	0.188303 
1240.228688  	0.182593 
1242.157504  	0.176251 
1244.086320  	0.169858 
1246.015136  	0.162584 
1247.943952  	0.155172 
1249.872768  	0.147872 
1251.801584  	0.141105 
1253.730400  	0.134498 
1255.659216  	0.127964 
1257.588032  	0.121817 
1259.516848  	0.116013 
1261.445664  	0.110658 
1263.374480  	0.105897 
1265.303296  	0.101582 
1267.232112  	0.098130 
1269.160928  	0.095718 
1271.089744  	0.094170 
1273.018560  	0.093624 
1274.947376  	0.093707 
1276.876192  	0.093695 
1278.805008  	0.093125 
1280.733824  	0.091543 
1282.662640  	0.088578 
1284.591456  	0.084702 
1286.520272  	0.080772 
1288.449088  	0.077570 
1290.377904  	0.075010 
1292.306720  	0.073047 
1294.235536  	0.070729 
1296.164352  	0.067521 
1298.093168  	0.063786 
1300.021984  	0.060154 
1301.950800  	0.056759 
1303.879616  	0.054008 
1305.808432  	0.051958 
1307.737248  	0.050361 
1309.666064  	0.048944 
1311.594880  	0.048339 
1313.523696  	0.048130 
1315.452512  	0.048152 
1317.381328  	0.048541 
1319.310144  	0.049273 
1321.238960  	0.050176 
1323.167776  	0.051101 
1325.096592  	0.051626 
1327.025408  	0.051764 
1328.954224  	0.051313 
1330.883040  	0.050534 
1332.811856  	0.049402 
1334.740672  	0.048493 
1336.669488  	0.047603 
1338.598304  	0.046946 
1340.527120  	0.046293 
1342.455936  	0.045690 
1344.384752  	0.045670 
1346.313568  	0.046379 
1348.242384  	0.047641 
1350.171200  	0.049502 
1352.100016  	0.051607 
1354.028832  	0.053727 
1355.957648  	0.055910 
1357.886464  	0.058088 
1359.815280  	0.059840 
1361.744096  	0.061559 
1363.672912  	0.063310 
1365.601728  	0.064314 
1367.530544  	0.064977 
1369.459360  	0.065271 
1371.388176  	0.064572 
1373.316992  	0.063135 
1375.245808  	0.061299 
1377.174624  	0.059589 
1379.103440  	0.057623 
1381.032256  	0.055736 
1382.961072  	0.054177 
1384.889888  	0.053107 
1386.818704  	0.052180 
1388.747520  	0.051127 
1390.676336  	0.049675 
1392.605152  	0.047832 
1394.533968  	0.046719 
1396.462784  	0.047606 
1398.391600  	0.048181 
1400.320416  	0.048962 
1402.249232  	0.049599 
1404.178048  	0.050668 
1406.106864  	0.052173 
1408.035680  	0.054002 
1409.964496  	0.056002 
1411.893312  	0.058370 
1413.822128  	0.060450 
1415.750944  	0.062210 
1417.679760  	0.062811 
1419.608576  	0.062839 
1421.537392  	0.062556 
1423.466208  	0.061723 
1425.395024  	0.060321 
1427.323840  	0.058703 
1429.252656  	0.056639 
1431.181472  	0.055295 
1433.110288  	0.054796 
1435.039104  	0.054551 
1436.967920  	0.054820 
1438.896736  	0.055701 
1440.825552  	0.056205 
1442.754368  	0.056733 
1444.683184  	0.056706 
1446.612000  	0.056567 
1448.540816  	0.056578 
1450.469632  	0.056917 
1452.398448  	0.057055 
1454.327264  	0.056816 
1456.256080  	0.056027 
1458.184896  	0.056622 
1460.113712  	0.057856 
1462.042528  	0.058497 
1463.971344  	0.058530 
1465.900160  	0.060510 
1467.828976  	0.063094 
1469.757792  	0.065423 
1471.686608  	0.067892 
1473.615424  	0.072756 
1475.544240  	0.076739 
1477.473056  	0.079770 
1479.401872  	0.080934 
1481.330688  	0.081260 
1483.259504  	0.080919 
1485.188320  	0.079770 
1487.117136  	0.077398 
1489.045952  	0.074842 
1490.974768  	0.071626 
1492.903584  	0.068840 
1494.832400  	0.065335 
1496.761216  	0.061059 
1498.690032  	0.057798 
1500.618848  	0.055962 
1502.547664  	0.054026 
1504.476480  	0.051204 
1506.405296  	0.048301 
1508.334112  	0.049108 
1510.262928  	0.049050 
1512.191744  	0.048204 
1514.120560  	0.047198 
1516.049376  	0.046612 
1517.978192  	0.046964 
1519.907008  	0.047742 
1521.835824  	0.049811 
1523.764640  	0.053167 
1525.693456  	0.056279 
1527.622272  	0.059214 
1529.551088  	0.060982 
1531.479904  	0.061425 
1533.408720  	0.060679 
1535.337536  	0.060101 
1537.266352  	0.057813 
1539.195168  	0.053081 
1541.123984  	0.050454 
1543.052800  	0.051106 
1544.981616  	0.051003 
1546.910432  	0.050536 
1548.839248  	0.049819 
1550.768064  	0.049721 
1552.696880  	0.049382 
1554.625696  	0.049467 
1556.554512  	0.048551 
1558.483328  	0.047845 
1560.412144  	0.053451 
1562.340960  	0.057191 
1564.269776  	0.059570 
1566.198592  	0.063298 
1568.127408  	0.066077 
1570.056224  	0.070791 
1571.985040  	0.075575 
1573.913856  	0.077777 
1575.842672  	0.078447 
1577.771488  	0.080826 
1579.700304  	0.081734 
1581.629120  	0.081930 
1583.557936  	0.082276 
1585.486752  	0.083992 
1587.415568  	0.086786 
1589.344384  	0.091140 
1591.273200  	0.096171 
1593.202016  	0.101931 
1595.130832  	0.107353 
1597.059648  	0.112695 
1598.988464  	0.116716 
1600.917280  	0.119761 
1602.846096  	0.121235 
1604.774912  	0.122153 
1606.703728  	0.121844 
1608.632544  	0.121318 
1610.561360  	0.120593 
1612.490176  	0.120616 
1614.418992  	0.120331 
1616.347808  	0.121115 
1618.276624  	0.124967 
1620.205440  	0.129906 
1622.134256  	0.134048 
1624.063072  	0.141230 
1625.991888  	0.148507 
1627.920704  	0.156052 
1629.849520  	0.164313 
1631.778336  	0.171948 
1633.707152  	0.177138 
1635.635968  	0.182585 
1637.564784  	0.189610 
1639.493600  	0.195155 
1641.422416  	0.198831 
1643.351232  	0.201374 
1645.280048  	0.201410 
1647.208864  	0.200695 
1649.137680  	0.201305 
1651.066496  	0.200940 
1652.995312  	0.196149 
1654.924128  	0.196067 
1656.852944  	0.196675 
1658.781760  	0.195671 
1660.710576  	0.193508 
1662.639392  	0.190835 
1664.568208  	0.189413 
1666.497024  	0.188524 
1668.425840  	0.185824 
1670.354656  	0.183534 
1672.283472  	0.183088 
1674.212288  	0.182734 
1676.141104  	0.182448 
1678.069920  	0.183510 
1679.998736  	0.183920 
1681.927552  	0.183615 
1683.856368  	0.181650 
1685.785184  	0.182338 
1687.714000  	0.182842 
1689.642816  	0.181342 
1691.571632  	0.179126 
1693.500448  	0.176638 
1695.429264  	0.171566 
1697.358080  	0.166630 
1699.286896  	0.162538 
1701.215712  	0.156385 
1703.144528  	0.153262 
1705.073344  	0.147953 
1707.002160  	0.141945 
1708.930976  	0.137139 
1710.859792  	0.131581 
1712.788608  	0.125065 
1714.717424  	0.117913 
1716.646240  	0.110318 
1718.575056  	0.102778 
1720.503872  	0.097073 
1722.432688  	0.091715 
1724.361504  	0.085033 
1726.290320  	0.079003 
1728.219136  	0.072924 
1730.147952  	0.066974 
1732.076768  	0.061052 
1734.005584  	0.054655 
1735.934400  	0.049222 
1737.863216  	0.045633 
1739.792032  	0.040324 
1741.720848  	0.036832 
1743.649664  	0.033539 
1745.578480  	0.030340 
1747.507296  	0.026971 
1749.436112  	0.025038 
1751.364928  	0.023886 
1753.293744  	0.022821 
1755.222560  	0.021012 
1757.151376  	0.020099 
1759.080192  	0.018872 
1761.009008  	0.018090 
1762.937824  	0.017622 
1764.866640  	0.017360 
1766.795456  	0.016482 
1768.724272  	0.016039 
1770.653088  	0.014197 
1772.581904  	0.013828 
1774.510720  	0.014709 
1776.439536  	0.015141 
1778.368352  	0.014765 
1780.297168  	0.014707 
1782.225984  	0.014363 
1784.154800  	0.014315 
1786.083616  	0.014189 
1788.012432  	0.013961 
1789.941248  	0.013175 
1791.870064  	0.012833 
1793.798880  	0.012882 
1795.727696  	0.013237 
1797.656512  	0.012616 
1799.585328  	0.012289 
1801.514144  	0.012567 
1803.442960  	0.012663 
1805.371776  	0.012196 
1807.300592  	0.012075 
1809.229408  	0.011383 
1811.158224  	0.011423 
1813.087040  	0.011567 
1815.015856  	0.011426 
1816.944672  	0.011228 
1818.873488  	0.011590 
1820.802304  	0.011441 
1822.731120  	0.011326 
1824.659936  	0.011149 
1826.588752  	0.011392 
1828.517568  	0.010749 
1830.446384  	0.011247 
1832.375200  	0.011688 
1834.304016  	0.011630 
1836.232832  	0.011405 
1838.161648  	0.011863 
1840.090464  	0.011535 
1842.019280  	0.010962 
1843.948096  	0.010482 
1845.876912  	0.011176 
1847.805728  	0.011403 
1849.734544  	0.011803 
1851.663360  	0.011496 
1853.592176  	0.011528 
1855.520992  	0.011429 
1857.449808  	0.011721 
1859.378624  	0.011441 
1861.307440  	0.011463 
1863.236256  	0.011091 
1865.165072  	0.010915 
1867.093888  	0.010549 
1869.022704  	0.011097 
1870.951520  	0.011308 
1872.880336  	0.011656 
1874.809152  	0.011241 
1876.737968  	0.011118 
1878.666784  	0.010891 
1880.595600  	0.011180 
1882.524416  	0.011209 
1884.453232  	0.011282 
1886.382048  	0.011083 
1888.310864  	0.011145 
1890.239680  	0.011365 
1892.168496  	0.011618 
1894.097312  	0.011177 
1896.026128  	0.011229 
1897.954944  	0.010876 
1899.883760  	0.011167 
1901.812576  	0.011112 
1903.741392  	0.011271 
1905.670208  	0.011149 
1907.599024  	0.011090 
1909.527840  	0.010698 
1911.456656  	0.011179 
1913.385472  	0.011210 
1915.314288  	0.011553 
1917.243104  	0.011512 
1919.171920  	0.011610 
1921.100736  	0.011561 
1923.029552  	0.011936 
1924.958368  	0.011090 
1926.887184  	0.011185 
1928.816000  	0.011143 
1930.744816  	0.011015 
1932.673632  	0.010603 
1934.602448  	0.011318 
1936.531264  	0.011473 
1938.460080  	0.011222 
1940.388896  	0.010756 
1942.317712  	0.011230 
1944.246528  	0.011442 
1946.175344  	0.011768 
1948.104160  	0.010907 
1950.032976  	0.011246 
1951.961792  	0.011480 
1953.890608  	0.011744 
1955.819424  	0.011013 
1957.748240  	0.011461 
1959.677056  	0.012268 
1961.605872  	0.012341 
1963.534688  	0.011312 
1965.463504  	0.012450 
1967.392320  	0.011887 
1969.321136  	0.011525 
1971.249952  	0.012028 
1973.178768  	0.013377 
1975.107584  	0.012032 
1977.036400  	0.012048 
1978.965216  	0.014105 
1980.894032  	0.014301 
1982.822848  	0.012071 
1984.751664  	0.012264 
1986.680480  	0.012183 
1988.609296  	0.012719 
1990.538112  	0.012485 
1992.466928  	0.012713 
1994.395744  	0.012778 
1996.324560  	0.013180 
1998.253376  	0.011955 
2000.182192  	0.011626 
2002.111008  	0.011731 
2004.039824  	0.011610 
2005.968640  	0.010702 
2007.897456  	0.013092 
2009.826272  	0.012948 
2011.755088  	0.012042 
2013.683904  	0.012636 
2015.612720  	0.013525 
2017.541536  	0.013282 
2019.470352  	0.013302 
2021.399168  	0.012485 
2023.327984  	0.013780 
2025.256800  	0.013407 
2027.185616  	0.012731 
2029.114432  	0.012102 
2031.043248  	0.013615 
2032.972064  	0.013716 
2034.900880  	0.014284 
2036.829696  	0.013872 
2038.758512  	0.013633 
2040.687328  	0.012611 
2042.616144  	0.011884 
2044.544960  	0.012338 
2046.473776  	0.013467 
2048.402592  	0.013236 
2050.331408  	0.013569 
2052.260224  	0.012630 
2054.189040  	0.012580 
2056.117856  	0.011805 
2058.046672  	0.011574 
2059.975488  	0.011545 
2061.904304  	0.011858 
2063.833120  	0.012258 
2065.761936  	0.012979 
2067.690752  	0.012453 
2069.619568  	0.011960 
2071.548384  	0.011419 
2073.477200  	0.011861 
2075.406016  	0.012133 
2077.334832  	0.012202 
2079.263648  	0.011700 
2081.192464  	0.011787 
2083.121280  	0.012154 
2085.050096  	0.012146 
2086.978912  	0.011937 
2088.907728  	0.012213 
2090.836544  	0.011823 
2092.765360  	0.011377 
2094.694176  	0.011566 
2096.622992  	0.011797 
2098.551808  	0.011322 
2100.480624  	0.011640 
2102.409440  	0.011529 
2104.338256  	0.011759 
2106.267072  	0.011545 
2108.195888  	0.011460 
2110.124704  	0.012186 
2112.053520  	0.012875 
2113.982336  	0.012222 
2115.911152  	0.012175 
2117.839968  	0.011734 
2119.768784  	0.011391 
2121.697600  	0.010947 
2123.626416  	0.010663 
2125.555232  	0.010682 
2127.484048  	0.011468 
2129.412864  	0.011233 
2131.341680  	0.010409 
2133.270496  	0.010476 
2135.199312  	0.011197 
2137.128128  	0.011610 
2139.056944  	0.011875 
2140.985760  	0.010452 
2142.914576  	0.011131 
2144.843392  	0.011954 
2146.772208  	0.012319 
2148.701024  	0.012279 
2150.629840  	0.012781 
2152.558656  	0.012048 
2154.487472  	0.011291 
2156.416288  	0.009710 
2158.345104  	0.011565 
2160.273920  	0.014660 
2162.202736  	0.016088 
2164.131552  	0.014936 
2166.060368  	0.015926 
2167.989184  	0.015638 
2169.918000  	0.014031 
2171.846816  	0.013425 
2173.775632  	0.013684 
2175.704448  	0.013932 
2177.633264  	0.015011 
2179.562080  	0.014578 
2181.490896  	0.013842 
2183.419712  	0.013260 
2185.348528  	0.014160 
2187.277344  	0.013977 
2189.206160  	0.014282 
2191.134976  	0.014522 
2193.063792  	0.015247 
2194.992608  	0.015168 
2196.921424  	0.014162 
2198.850240  	0.014597 
2200.779056  	0.014389 
2202.707872  	0.014043 
2204.636688  	0.014315 
2206.565504  	0.014039 
2208.494320  	0.014443 
2210.423136  	0.013513 
2212.351952  	0.013804 
2214.280768  	0.014097 
2216.209584  	0.012956 
2218.138400  	0.012529 
2220.067216  	0.013095 
2221.996032  	0.013062 
2223.924848  	0.013183 
2225.853664  	0.013228 
2227.782480  	0.013358 
2229.711296  	0.013642 
2231.640112  	0.013751 
2233.568928  	0.013301 
2235.497744  	0.012984 
2237.426560  	0.012365 
2239.355376  	0.012469 
2241.284192  	0.012737 
2243.213008  	0.012712 
2245.141824  	0.012688 
2247.070640  	0.012549 
2248.999456  	0.012469 
2250.928272  	0.012785 
2252.857088  	0.012556 
2254.785904  	0.012388 
2256.714720  	0.012750 
2258.643536  	0.013010 
2260.572352  	0.012582 
2262.501168  	0.012566 
2264.429984  	0.012810 
2266.358800  	0.013466 
2268.287616  	0.013426 
2270.216432  	0.013194 
2272.145248  	0.013057 
2274.074064  	0.013303 
2276.002880  	0.013211 
2277.931696  	0.013544 
2279.860512  	0.014077 
2281.789328  	0.014175 
2283.718144  	0.013839 
2285.646960  	0.014197 
2287.575776  	0.014271 
2289.504592  	0.013959 
2291.433408  	0.013583 
2293.362224  	0.013570 
2295.291040  	0.013744 
2297.219856  	0.014033 
2299.148672  	0.014028 
2301.077488  	0.014005 
2303.006304  	0.014026 
2304.935120  	0.014063 
2306.863936  	0.013963 
2308.792752  	0.014058 
2310.721568  	0.014147 
2312.650384  	0.013896 
2314.579200  	0.013516 
2316.508016  	0.013297 
2318.436832  	0.012861 
2320.365648  	0.012555 
2322.294464  	0.012272 
2324.223280  	0.011364 
2326.152096  	0.009702 
2328.080912  	0.008766 
2330.009728  	0.008226 
2331.938544  	0.007488 
2333.867360  	0.006330 
2335.796176  	0.005973 
2337.724992  	0.005672 
2339.653808  	0.005407 
2341.582624  	0.005627 
2343.511440  	0.007107 
2345.440256  	0.008800 
2347.369072  	0.010305 
2349.297888  	0.010152 
2351.226704  	0.008562 
2353.155520  	0.006916 
2355.084336  	0.005205 
2357.013152  	0.004124 
2358.941968  	0.003413 
2360.870784  	0.002760 
2362.799600  	0.003673 
2364.728416  	0.004632 
2366.657232  	0.005748 
2368.586048  	0.006641 
2370.514864  	0.008220 
2372.443680  	0.009913 
2374.372496  	0.011551 
2376.301312  	0.012874 
2378.230128  	0.013957 
2380.158944  	0.014448 
2382.087760  	0.014434 
2384.016576  	0.014320 
2385.945392  	0.014312 
2387.874208  	0.013985 
2389.803024  	0.013840 
2391.731840  	0.013677 
2393.660656  	0.013689 
2395.589472  	0.013693 
2397.518288  	0.013843 
2399.447104  	0.014022 
2401.375920  	0.013926 
2403.304736  	0.013973 
2405.233552  	0.014194 
2407.162368  	0.014304 
2409.091184  	0.014322 
2411.020000  	0.014313 
2412.948816  	0.014541 
2414.877632  	0.014766 
2416.806448  	0.014970 
2418.735264  	0.015017 
2420.664080  	0.014986 
2422.592896  	0.014775 
2424.521712  	0.014766 
2426.450528  	0.014926 
2428.379344  	0.014911 
2430.308160  	0.014867 
2432.236976  	0.015106 
2434.165792  	0.015250 
2436.094608  	0.015549 
2438.023424  	0.015712 
2439.952240  	0.015895 
2441.881056  	0.015945 
2443.809872  	0.015994 
2445.738688  	0.015985 
2447.667504  	0.016120 
2449.596320  	0.016189 
2451.525136  	0.016262 
2453.453952  	0.016284 
2455.382768  	0.016470 
2457.311584  	0.016573 
2459.240400  	0.016547 
2461.169216  	0.016481 
2463.098032  	0.016555 
2465.026848  	0.016412 
2466.955664  	0.016468 
2468.884480  	0.016425 
2470.813296  	0.016358 
2472.742112  	0.016461 
2474.670928  	0.016604 
2476.599744  	0.016697 
2478.528560  	0.016853 
2480.457376  	0.017003 
2482.386192  	0.017046 
2484.315008  	0.017125 
2486.243824  	0.017148 
2488.172640  	0.017046 
2490.101456  	0.017119 
2492.030272  	0.017582 
2493.959088  	0.017603 
2495.887904  	0.017275 
2497.816720  	0.017476 
2499.745536  	0.017627 
2501.674352  	0.017849 
2503.603168  	0.018012 
2505.531984  	0.018152 
2507.460800  	0.018193 
2509.389616  	0.018150 
2511.318432  	0.017936 
2513.247248  	0.017986 
2515.176064  	0.018060 
2517.104880  	0.018334 
2519.033696  	0.018631 
2520.962512  	0.018703 
2522.891328  	0.018876 
2524.820144  	0.019142 
2526.748960  	0.019105 
2528.677776  	0.019074 
2530.606592  	0.018942 
2532.535408  	0.018885 
2534.464224  	0.019115 
2536.393040  	0.019339 
2538.321856  	0.019097 
2540.250672  	0.019203 
2542.179488  	0.019513 
2544.108304  	0.019660 
2546.037120  	0.019533 
2547.965936  	0.019767 
2549.894752  	0.020009 
2551.823568  	0.020048 
2553.752384  	0.020004 
2555.681200  	0.020150 
2557.610016  	0.020361 
2559.538832  	0.020449 
2561.467648  	0.020489 
2563.396464  	0.020831 
2565.325280  	0.020981 
2567.254096  	0.020924 
2569.182912  	0.020697 
2571.111728  	0.020537 
2573.040544  	0.020310 
2574.969360  	0.020531 
2576.898176  	0.020908 
2578.826992  	0.021183 
2580.755808  	0.021049 
2582.684624  	0.021161 
2584.613440  	0.021235 
2586.542256  	0.021350 
2588.471072  	0.021525 
2590.399888  	0.021471 
2592.328704  	0.021510 
2594.257520  	0.021864 
2596.186336  	0.022224 
2598.115152  	0.022275 
2600.043968  	0.022146 
2601.972784  	0.022278 
2603.901600  	0.022426 
2605.830416  	0.022449 
2607.759232  	0.022269 
2609.688048  	0.022483 
2611.616864  	0.022773 
2613.545680  	0.022909 
2615.474496  	0.022960 
2617.403312  	0.022946 
2619.332128  	0.023111 
2621.260944  	0.023253 
2623.189760  	0.023190 
2625.118576  	0.023412 
2627.047392  	0.023543 
2628.976208  	0.023726 
2630.905024  	0.023812 
2632.833840  	0.024064 
2634.762656  	0.024241 
2636.691472  	0.024257 
2638.620288  	0.024230 
2640.549104  	0.024418 
2642.477920  	0.024525 
2644.406736  	0.024499 
2646.335552  	0.024769 
2648.264368  	0.025093 
2650.193184  	0.025217 
2652.122000  	0.025390 
2654.050816  	0.025557 
2655.979632  	0.025580 
2657.908448  	0.025608 
2659.837264  	0.025684 
2661.766080  	0.025711 
2663.694896  	0.025774 
2665.623712  	0.025751 
2667.552528  	0.025714 
2669.481344  	0.025855 
2671.410160  	0.026167 
2673.338976  	0.026306 
2675.267792  	0.026406 
2677.196608  	0.026580 
2679.125424  	0.026701 
2681.054240  	0.026741 
2682.983056  	0.026828 
2684.911872  	0.027073 
2686.840688  	0.027291 
2688.769504  	0.027328 
2690.698320  	0.027409 
2692.627136  	0.027637 
2694.555952  	0.027832 
2696.484768  	0.027831 
2698.413584  	0.027881 
2700.342400  	0.028011 
2702.271216  	0.028157 
2704.200032  	0.028388 
2706.128848  	0.028599 
2708.057664  	0.028701 
2709.986480  	0.028792 
2711.915296  	0.028941 
2713.844112  	0.029020 
2715.772928  	0.029172 
2717.701744  	0.029464 
2719.630560  	0.029545 
2721.559376  	0.029648 
2723.488192  	0.029736 
2725.417008  	0.029989 
2727.345824  	0.030111 
2729.274640  	0.030049 
2731.203456  	0.030132 
2733.132272  	0.030371 
2735.061088  	0.030586 
2736.989904  	0.030705 
2738.918720  	0.030744 
2740.847536  	0.030746 
2742.776352  	0.030898 
2744.705168  	0.031173 
2746.633984  	0.031224 
2748.562800  	0.031294 
2750.491616  	0.031399 
2752.420432  	0.031470 
2754.349248  	0.031526 
2756.278064  	0.031625 
2758.206880  	0.031742 
2760.135696  	0.031913 
2762.064512  	0.031942 
2763.993328  	0.031893 
2765.922144  	0.031948 
2767.850960  	0.032046 
2769.779776  	0.032158 
2771.708592  	0.032319 
2773.637408  	0.032317 
2775.566224  	0.032459 
2777.495040  	0.032568 
2779.423856  	0.032583 
2781.352672  	0.032694 
2783.281488  	0.032879 
2785.210304  	0.032959 
2787.139120  	0.033148 
2789.067936  	0.033291 
2790.996752  	0.033361 
2792.925568  	0.033535 
2794.854384  	0.033674 
2796.783200  	0.033666 
2798.712016  	0.033662 
2800.640832  	0.033783 
2802.569648  	0.033974 
2804.498464  	0.034152 
2806.427280  	0.034281 
2808.356096  	0.034392 
2810.284912  	0.034583 
2812.213728  	0.034637 
2814.142544  	0.034611 
2816.071360  	0.034741 
2818.000176  	0.034824 
2819.928992  	0.034743 
2821.857808  	0.034786 
2823.786624  	0.034869 
2825.715440  	0.034862 
2827.644256  	0.034708 
2829.573072  	0.034717 
2831.501888  	0.034643 
2833.430704  	0.034599 
2835.359520  	0.034575 
2837.288336  	0.034491 
2839.217152  	0.034420 
2841.145968  	0.034273 
2843.074784  	0.034142 
2845.003600  	0.034129 
2846.932416  	0.034077 
2848.861232  	0.034014 
2850.790048  	0.033965 
2852.718864  	0.033966 
2854.647680  	0.034022 
2856.576496  	0.034070 
2858.505312  	0.033968 
2860.434128  	0.033917 
2862.362944  	0.033807 
2864.291760  	0.033595 
2866.220576  	0.033519 
2868.149392  	0.033855 
2870.078208  	0.034206 
2872.007024  	0.034481 
2873.935840  	0.034742 
2875.864656  	0.035204 
2877.793472  	0.035747 
2879.722288  	0.036076 
2881.651104  	0.036132 
2883.579920  	0.036144 
2885.508736  	0.036276 
2887.437552  	0.036543 
2889.366368  	0.036667 
2891.295184  	0.036727 
2893.224000  	0.036760 
2895.152816  	0.036901 
2897.081632  	0.036683 
2899.010448  	0.036171 
2900.939264  	0.035856 
2902.868080  	0.036273 
2904.796896  	0.036735 
2906.725712  	0.036933 
2908.654528  	0.037228 
2910.583344  	0.037592 
2912.512160  	0.038143 
2914.440976  	0.038828 
2916.369792  	0.039370 
2918.298608  	0.039856 
2920.227424  	0.040333 
2922.156240  	0.041011 
2924.085056  	0.041716 
2926.013872  	0.042613 
2927.942688  	0.043532 
2929.871504  	0.044453 
2931.800320  	0.045183 
2933.729136  	0.045654 
2935.657952  	0.045926 
2937.586768  	0.046344 
2939.515584  	0.046698 
2941.444400  	0.046862 
2943.373216  	0.047063 
2945.302032  	0.047268 
2947.230848  	0.047231 
2949.159664  	0.047082 
2951.088480  	0.046830 
2953.017296  	0.046639 
2954.946112  	0.046152 
2956.874928  	0.045653 
2958.803744  	0.045220 
2960.732560  	0.044900 
2962.661376  	0.044730 
2964.590192  	0.044236 
2966.519008  	0.043681 
2968.447824  	0.043176 
2970.376640  	0.042804 
2972.305456  	0.042523 
2974.234272  	0.042320 
2976.163088  	0.042197 
2978.091904  	0.042069 
2980.020720  	0.041956 
2981.949536  	0.041819 
2983.878352  	0.041590 
2985.807168  	0.041208 
2987.735984  	0.041021 
2989.664800  	0.041235 
2991.593616  	0.042238 
2993.522432  	0.042610 
2995.451248  	0.042691 
2997.380064  	0.043126 
2999.308880  	0.043658 
3001.237696  	0.044151 
3003.166512  	0.044639 
3005.095328  	0.045148 
3007.024144  	0.045753 
3008.952960  	0.046378 
3010.881776  	0.046905 
3012.810592  	0.047362 
3014.739408  	0.047797 
3016.668224  	0.048245 
3018.597040  	0.048703 
3020.525856  	0.049070 
3022.454672  	0.049516 
3024.383488  	0.050141 
3026.312304  	0.050658 
3028.241120  	0.051012 
3030.169936  	0.051185 
3032.098752  	0.051557 
3034.027568  	0.051798 
3035.956384  	0.051949 
3037.885200  	0.052366 
3039.814016  	0.053046 
3041.742832  	0.053590 
3043.671648  	0.053696 
3045.600464  	0.053782 
3047.529280  	0.054046 
3049.458096  	0.054367 
3051.386912  	0.054535 
3053.315728  	0.054885 
3055.244544  	0.055392 
3057.173360  	0.056098 
3059.102176  	0.056492 
3061.030992  	0.056632 
3062.959808  	0.056979 
3064.888624  	0.057449 
3066.817440  	0.057905 
3068.746256  	0.058256 
3070.675072  	0.058620 
3072.603888  	0.059116 
3074.532704  	0.059620 
3076.461520  	0.060066 
3078.390336  	0.060360 
3080.319152  	0.060694 
3082.247968  	0.061116 
3084.176784  	0.061561 
3086.105600  	0.061848 
3088.034416  	0.062225 
3089.963232  	0.062701 
3091.892048  	0.062990 
3093.820864  	0.063197 
3095.749680  	0.063558 
3097.678496  	0.063830 
3099.607312  	0.064298 
3101.536128  	0.064701 
3103.464944  	0.064957 
3105.393760  	0.065225 
3107.322576  	0.065603 
3109.251392  	0.066107 
3111.180208  	0.066547 
3113.109024  	0.066619 
3115.037840  	0.066644 
3116.966656  	0.066967 
3118.895472  	0.067344 
3120.824288  	0.067653 
3122.753104  	0.067989 
3124.681920  	0.068160 
3126.610736  	0.068305 
3128.539552  	0.068557 
3130.468368  	0.068789 
3132.397184  	0.069018 
3134.326000  	0.069221 
3136.254816  	0.069387 
3138.183632  	0.069640 
3140.112448  	0.069826 
3142.041264  	0.070000 
3143.970080  	0.070312 
3145.898896  	0.070514 
3147.827712  	0.070650 
3149.756528  	0.070996 
3151.685344  	0.071479 
3153.614160  	0.071831 
3155.542976  	0.071986 
3157.471792  	0.072172 
3159.400608  	0.072595 
3161.329424  	0.073054 
3163.258240  	0.073491 
3165.187056  	0.073784 
3167.115872  	0.073988 
3169.044688  	0.074039 
3170.973504  	0.073923 
3172.902320  	0.074035 
3174.831136  	0.074405 
3176.759952  	0.074721 
3178.688768  	0.074983 
3180.617584  	0.075108 
3182.546400  	0.074971 
3184.475216  	0.075208 
3186.404032  	0.075492 
3188.332848  	0.075501 
3190.261664  	0.075731 
3192.190480  	0.075772 
3194.119296  	0.075421 
3196.048112  	0.075486 
3197.976928  	0.075730 
3199.905744  	0.075706 
3201.834560  	0.075697 
3203.763376  	0.075724 
3205.692192  	0.075593 
3207.621008  	0.075386 
3209.549824  	0.075228 
3211.478640  	0.075123 
3213.407456  	0.075015 
3215.336272  	0.074906 
3217.265088  	0.074728 
3219.193904  	0.074506 
3221.122720  	0.074158 
3223.051536  	0.073936 
3224.980352  	0.073728 
3226.909168  	0.073452 
3228.837984  	0.073125 
3230.766800  	0.073006 
3232.695616  	0.073082 
3234.624432  	0.073173 
3236.553248  	0.072971 
3238.482064  	0.072653 
3240.410880  	0.072531 
3242.339696  	0.072455 
3244.268512  	0.072413 
3246.197328  	0.072457 
3248.126144  	0.072459 
3250.054960  	0.072417 
3251.983776  	0.072231 
3253.912592  	0.072260 
3255.841408  	0.072452 
3257.770224  	0.072608 
3259.699040  	0.072631 
3261.627856  	0.072762 
3263.556672  	0.072775 
3265.485488  	0.072724 
3267.414304  	0.072799 
3269.343120  	0.072848 
3271.271936  	0.073118 
3273.200752  	0.073342 
3275.129568  	0.073389 
3277.058384  	0.073325 
3278.987200  	0.073356 
3280.916016  	0.073459 
3282.844832  	0.073516 
3284.773648  	0.073487 
3286.702464  	0.073655 
3288.631280  	0.073957 
3290.560096  	0.074174 
3292.488912  	0.074311 
3294.417728  	0.074386 
3296.346544  	0.074583 
3298.275360  	0.074672 
3300.204176  	0.074863 
3302.132992  	0.075089 
3304.061808  	0.075384 
3305.990624  	0.075788 
3307.919440  	0.075927 
3309.848256  	0.075889 
3311.777072  	0.075821 
3313.705888  	0.076001 
3315.634704  	0.076423 
3317.563520  	0.076744 
3319.492336  	0.076853 
3321.421152  	0.076960 
3323.349968  	0.077087 
3325.278784  	0.077299 
3327.207600  	0.077329 
3329.136416  	0.077257 
3331.065232  	0.077186 
3332.994048  	0.077198 
3334.922864  	0.077239 
3336.851680  	0.077158 
3338.780496  	0.077072 
3340.709312  	0.077052 
3342.638128  	0.076955 
3344.566944  	0.076748 
3346.495760  	0.076361 
3348.424576  	0.076122 
3350.353392  	0.075921 
3352.282208  	0.075675 
3354.211024  	0.075520 
3356.139840  	0.075257 
3358.068656  	0.074966 
3359.997472  	0.074726 
3361.926288  	0.074290 
3363.855104  	0.073887 
3365.783920  	0.073576 
3367.712736  	0.073488 
3369.641552  	0.073108 
3371.570368  	0.072609 
3373.499184  	0.072339 
3375.428000  	0.072087 
3377.356816  	0.071761 
3379.285632  	0.071453 
3381.214448  	0.071237 
3383.143264  	0.070929 
3385.072080  	0.070609 
3387.000896  	0.070118 
3388.929712  	0.069803 
3390.858528  	0.069390 
3392.787344  	0.069017 
3394.716160  	0.068620 
3396.644976  	0.068248 
3398.573792  	0.067833 
3400.502608  	0.067240 
3402.431424  	0.066780 
3404.360240  	0.066567 
3406.289056  	0.066263 
3408.217872  	0.065737 
3410.146688  	0.065335 
3412.075504  	0.065168 
3414.004320  	0.064814 
3415.933136  	0.064300 
3417.861952  	0.063911 
3419.790768  	0.063785 
3421.719584  	0.063401 
3423.648400  	0.062667 
3425.577216  	0.062239 
3427.506032  	0.062063 
3429.434848  	0.061716 
3431.363664  	0.061217 
3433.292480  	0.060808 
3435.221296  	0.060384 
3437.150112  	0.060043 
3439.078928  	0.059886 
3441.007744  	0.059536 
3442.936560  	0.059070 
3444.865376  	0.058396 
3446.794192  	0.057740 
3448.723008  	0.057459 
3450.651824  	0.057070 
3452.580640  	0.056540 
3454.509456  	0.056011 
3456.438272  	0.055496 
3458.367088  	0.055197 
3460.295904  	0.054816 
3462.224720  	0.054141 
3464.153536  	0.053450 
3466.082352  	0.053076 
3468.011168  	0.052666 
3469.939984  	0.052140 
3471.868800  	0.051546 
3473.797616  	0.051014 
3475.726432  	0.050460 
3477.655248  	0.049835 
3479.584064  	0.049283 
3481.512880  	0.048919 
3483.441696  	0.048364 
3485.370512  	0.047652 
3487.299328  	0.047052 
3489.228144  	0.046452 
3491.156960  	0.045914 
3493.085776  	0.045560 
3495.014592  	0.045115 
3496.943408  	0.044622 
3498.872224  	0.044046 
3500.801040  	0.043675 
3502.729856  	0.043114 
3504.658672  	0.042660 
3506.587488  	0.042035 
3508.516304  	0.041466 
3510.445120  	0.041248 
3512.373936  	0.041001 
3514.302752  	0.040615 
3516.231568  	0.040043 
3518.160384  	0.039359 
3520.089200  	0.038940 
3522.018016  	0.038726 
3523.946832  	0.038668 
3525.875648  	0.038123 
3527.804464  	0.037494 
3529.733280  	0.037134 
3531.662096  	0.036876 
3533.590912  	0.036357 
3535.519728  	0.035934 
3537.448544  	0.035784 
3539.377360  	0.035237 
3541.306176  	0.034464 
3543.234992  	0.033835 
3545.163808  	0.033858 
3547.092624  	0.033658 
3549.021440  	0.032709 
3550.950256  	0.032108 
3552.879072  	0.032197 
3554.807888  	0.031962 
3556.736704  	0.031387 
3558.665520  	0.031068 
3560.594336  	0.030851 
3562.523152  	0.030262 
3564.451968  	0.029449 
3566.380784  	0.029393 
3568.309600  	0.029528 
3570.238416  	0.028788 
3572.167232  	0.027996 
3574.096048  	0.027429 
3576.024864  	0.027038 
3577.953680  	0.026692 
3579.882496  	0.026396 
3581.811312  	0.025943 
3583.740128  	0.025068 
3585.668944  	0.024188 
3587.597760  	0.024524 
3589.526576  	0.024461 
3591.455392  	0.023020 
3593.384208  	0.022371 
3595.313024  	0.022098 
3597.241840  	0.021559 
3599.170656  	0.020833 
3601.099472  	0.020464 
3603.028288  	0.020055 
3604.957104  	0.019177 
3606.885920  	0.018362 
3608.814736  	0.018514 
3610.743552  	0.017798 
3612.672368  	0.016842 
3614.601184  	0.016512 
3616.530000  	0.015368 
3618.458816  	0.014782 
3620.387632  	0.015060 
3622.316448  	0.014517 
3624.245264  	0.013780 
3626.174080  	0.012404 
3628.102896  	0.011478 
3630.031712  	0.012735 
3631.960528  	0.012219 
3633.889344  	0.011472 
3635.818160  	0.010849 
3637.746976  	0.010213 
3639.675792  	0.009885 
3641.604608  	0.009571 
3643.533424  	0.008695 
3645.462240  	0.006829 
3647.391056  	0.005272 
3649.319872  	0.004953 
3651.248688  	0.006635 
3653.177504  	0.006298 
3655.106320  	0.004832 
3657.035136  	0.005069 
3658.963952  	0.005120 
3660.892768  	0.004586 
3662.821584  	0.004123 
3664.750400  	0.003561 
3666.679216  	0.002167 
3668.608032  	0.000480 
3670.536848  	0.001283 
3672.465664  	0.001218 
3674.394480  	-0.000702 
3676.323296  	0.001094 
3678.252112  	0.001997 
3680.180928  	0.002378 
3682.109744  	0.002324 
3684.038560  	0.001750 
3685.967376  	0.000470 
3687.896192  	-0.000766 
3689.825008  	-0.000111 
3691.753824  	0.001179 
3693.682640  	0.001767 
3695.611456  	0.001815 
3697.540272  	0.001898 
3699.469088  	0.001251 
3701.397904  	0.001753 
3703.326720  	0.002602 
3705.255536  	0.001994 
3707.184352  	0.000893 
3709.113168  	0.000149 
3711.041984  	0.000532 
3712.970800  	0.002316 
3714.899616  	0.002948 
3716.828432  	0.002444 
3718.757248  	0.001863 
3720.686064  	0.001431 
3722.614880  	0.001784 
3724.543696  	0.002144 
3726.472512  	0.002604 
3728.401328  	0.002192 
3730.330144  	0.000298 
3732.258960  	-0.000677 
3734.187776  	-0.000026 
3736.116592  	0.002172 
3738.045408  	0.002315 
3739.974224  	0.001560 
3741.903040  	0.000356 
3743.831856  	0.000542 
3745.760672  	0.002440 
3747.689488  	0.000371 
3749.618304  	-0.000620 
3751.547120  	0.000845 
3753.475936  	0.002873 
3755.404752  	0.002238 
3757.333568  	0.001496 
3759.262384  	0.001712 
3761.191200  	0.002884 
3763.120016  	0.002622 
3765.048832  	0.002322 
3766.977648  	0.002265 
3768.906464  	0.001849 
3770.835280  	0.002747 
3772.764096  	0.003020 
3774.692912  	0.002740 
3776.621728  	0.002055 
3778.550544  	0.001641 
3780.479360  	0.002512 
3782.408176  	0.002311 
3784.336992  	0.002106 
3786.265808  	0.002614 
3788.194624  	0.002831 
3790.123440  	0.002736 
3792.052256  	0.002557 
3793.981072  	0.001879 
3795.909888  	0.001473 
3797.838704  	0.001609 
3799.767520  	0.000178 
3801.696336  	0.000846 
3803.625152  	0.001746 
3805.553968  	0.000732 
3807.482784  	0.001980 
3809.411600  	0.002803 
3811.340416  	0.002574 
3813.269232  	0.001423 
3815.198048  	0.000389 
3817.126864  	0.001303 
3819.055680  	-0.000057 
3820.984496  	0.000386 
3822.913312  	0.002672 
3824.842128  	0.001982 
3826.770944  	0.001932 
3828.699760  	0.001959 
3830.628576  	0.001221 
3832.557392  	0.001219 
3834.486208  	0.000699 
3836.415024  	-0.000122 
3838.343840  	0.000585 
3840.272656  	0.001486 
3842.201472  	0.001718 
3844.130288  	0.002149 
3846.059104  	0.002517 
3847.987920  	0.001854 
3849.916736  	0.000397 
3851.845552  	-0.001314 
3853.774368  	0.001137 
3855.703184  	0.002807 
3857.632000  	0.002178 
3859.560816  	0.001656 
3861.489632  	0.001246 
3863.418448  	0.001161 
3865.347264  	0.001866 
3867.276080  	0.001255 
3869.204896  	0.000976 
3871.133712  	0.002619 
3873.062528  	0.001979 
3874.991344  	0.002585 
3876.920160  	0.002270 
3878.848976  	0.001521 
3880.777792  	0.002407 
3882.706608  	0.002406 
3884.635424  	0.001720 
3886.564240  	0.002955 
3888.493056  	0.002245 
3890.421872  	0.001746 
3892.350688  	0.002621 
3894.279504  	0.002703 
3896.208320  	0.002176 
3898.137136  	0.001749 
3900.065952  	0.001874 
3901.994768  	0.001984 
3903.923584  	0.002733 
3905.852400  	0.003578 
3907.781216  	0.003208 
3909.710032  	0.002793 
3911.638848  	0.002758 
3913.567664  	0.002589 
3915.496480  	0.002527 
3917.425296  	0.003293 
3919.354112  	0.003347 
3921.282928  	0.003101 
3923.211744  	0.002725 
3925.140560  	0.003015 
3927.069376  	0.002890 
3928.998192  	0.002589 
3930.927008  	0.003020 
3932.855824  	0.003725 
3934.784640  	0.003286 
3936.713456  	0.002996 
3938.642272  	0.003059 
3940.571088  	0.002729 
3942.499904  	0.003154 
3944.428720  	0.003569 
3946.357536  	0.003202 
3948.286352  	0.003187 
3950.215168  	0.002961 
3952.143984  	0.002718 
3954.072800  	0.002674 
3956.001616  	0.002639 
3957.930432  	0.002797 
3959.859248  	0.003070 
3961.788064  	0.003195 
3963.716880  	0.003164 
3965.645696  	0.002879 
3967.574512  	0.003057 
3969.503328  	0.003140 
3971.432144  	0.003040 
3973.360960  	0.003036 
3975.289776  	0.003322 
3977.218592  	0.003315 
3979.147408  	0.003213 
3981.076224  	0.003094 
3983.005040  	0.002915 
3984.933856  	0.002889 
3986.862672  	0.003103 
3988.791488  	0.003146 
3990.720304  	0.003062 
3992.649120  	0.002945 
3994.577936  	0.002994 
3996.506752  	0.003101 
3998.435568  	0.003192 
4000.364384  	0.003170 