##TITLE=No Description
##DATA TYPE=INFRARED SPECTRUM
##XUNITS=1/CM
##YUNITS=Abs
399.264912  	0.569202 
401.193728  	0.572924 
403.122544  	0.578560 
405.051360  	0.559504 
406.980176  	0.535868 
408.908992  	0.528516 
410.837808  	0.530923 
412.766624  	0.538933 
414.695440  	0.545302 
416.624256  	0.537545 
418.553072  	0.539019 
420.481888  	0.537083 
422.410704  	0.540769 
424.339520  	0.528926 
426.268336  	0.521146 
428.197152  	0.511281 
430.125968  	0.509594 
432.054784  	0.508239 
433.983600  	0.511508 
435.912416  	0.502319 
437.841232  	0.496586 
439.770048  	0.497467 
441.698864  	0.499792 
443.627680  	0.496666 
445.556496  	0.496933 
447.485312  	0.494633 
449.414128  	0.493169 
451.342944  	0.488320 
453.271760  	0.486835 
455.200576  	0.485420 
457.129392  	0.490090 
459.058208  	0.490434 
460.987024  	0.489045 
462.915840  	0.486937 
464.844656  	0.487628 
466.773472  	0.487940 
468.702288  	0.490834 
470.631104  	0.486965 
472.559920  	0.483743 
474.488736  	0.480019 
476.417552  	0.483492 
478.346368  	0.488123 
480.275184  	0.488729 
482.204000  	0.487624 
484.132816  	0.486534 
486.061632  	0.480356 
487.990448  	0.481256 
489.919264  	0.481007 
491.848080  	0.479541 
493.776896  	0.476573 
495.705712  	0.476556 
497.634528  	0.476071 
499.563344  	0.476462 
501.492160  	0.476269 
503.420976  	0.477382 
505.349792  	0.473545 
507.278608  	0.472672 
509.207424  	0.473907 
511.136240  	0.476082 
513.065056  	0.476010 
514.993872  	0.476191 
516.922688  	0.475016 
518.851504  	0.476132 
520.780320  	0.476018 
522.709136  	0.476146 
524.637952  	0.472731 
526.566768  	0.471086 
528.495584  	0.469402 
530.424400  	0.467875 
532.353216  	0.463392 
534.282032  	0.458473 
536.210848  	0.453979 
538.139664  	0.451232 
540.068480  	0.446325 
541.997296  	0.443192 
543.926112  	0.439395 
545.854928  	0.437432 
547.783744  	0.434086 
549.712560  	0.430206 
551.641376  	0.426170 
553.570192  	0.422710 
555.499008  	0.419061 
557.427824  	0.415941 
559.356640  	0.412731 
561.285456  	0.410017 
563.214272  	0.405754 
565.143088  	0.402460 
567.071904  	0.398597 
569.000720  	0.395301 
570.929536  	0.392194 
572.858352  	0.389382 
574.787168  	0.385881 
576.715984  	0.382147 
578.644800  	0.378256 
580.573616  	0.374518 
582.502432  	0.370222 
584.431248  	0.367889 
586.360064  	0.365968 
588.288880  	0.363462 
590.217696  	0.360852 
592.146512  	0.359512 
594.075328  	0.357147 
596.004144  	0.354977 
597.932960  	0.354039 
599.861776  	0.353708 
601.790592  	0.352632 
603.719408  	0.351544 
605.648224  	0.349818 
607.577040  	0.349183 
609.505856  	0.349112 
611.434672  	0.348142 
613.363488  	0.345704 
615.292304  	0.343752 
617.221120  	0.342057 
619.149936  	0.341008 
621.078752  	0.338323 
623.007568  	0.335907 
624.936384  	0.334483 
626.865200  	0.333321 
628.794016  	0.331781 
630.722832  	0.330574 
632.651648  	0.329087 
634.580464  	0.329022 
636.509280  	0.329844 
638.438096  	0.329302 
640.366912  	0.328116 
642.295728  	0.326684 
644.224544  	0.324372 
646.153360  	0.321783 
648.082176  	0.318488 
650.010992  	0.315493 
651.939808  	0.311727 
653.868624  	0.308002 
655.797440  	0.304331 
657.726256  	0.301153 
659.655072  	0.297822 
661.583888  	0.294455 
663.512704  	0.290730 
665.441520  	0.287887 
667.370336  	0.283625 
669.299152  	0.279521 
671.227968  	0.278026 
673.156784  	0.275964 
675.085600  	0.274458 
677.014416  	0.272918 
678.943232  	0.271291 
680.872048  	0.269548 
682.800864  	0.268032 
684.729680  	0.266806 
686.658496  	0.264768 
688.587312  	0.262783 
690.516128  	0.260952 
692.444944  	0.259711 
694.373760  	0.258232 
696.302576  	0.256959 
698.231392  	0.255090 
700.160208  	0.252155 
702.089024  	0.249511 
704.017840  	0.248328 
705.946656  	0.245738 
707.875472  	0.243038 
709.804288  	0.241512 
711.733104  	0.240504 
713.661920  	0.239211 
715.590736  	0.238570 
717.519552  	0.238135 
719.448368  	0.238528 
721.377184  	0.239651 
723.306000  	0.240551 
725.234816  	0.240550 
727.163632  	0.239173 
729.092448  	0.236523 
731.021264  	0.233856 
732.950080  	0.231444 
734.878896  	0.228821 
736.807712  	0.226196 
738.736528  	0.224278 
740.665344  	0.223139 
742.594160  	0.221932 
744.522976  	0.220182 
746.451792  	0.219018 
748.380608  	0.218488 
750.309424  	0.217696 
752.238240  	0.217312 
754.167056  	0.217250 
756.095872  	0.216615 
758.024688  	0.215690 
759.953504  	0.215258 
761.882320  	0.215148 
763.811136  	0.215262 
765.739952  	0.215139 
767.668768  	0.213981 
769.597584  	0.213046 
771.526400  	0.213480 
773.455216  	0.215430 
775.384032  	0.218475 
777.312848  	0.222182 
779.241664  	0.225869 
781.170480  	0.226739 
783.099296  	0.223822 
785.028112  	0.219100 
786.956928  	0.213451 
788.885744  	0.208482 
790.814560  	0.204665 
792.743376  	0.202114 
794.672192  	0.200527 
796.601008  	0.199688 
798.529824  	0.198039 
800.458640  	0.194920 
802.387456  	0.192052 
804.316272  	0.190771 
806.245088  	0.190116 
808.173904  	0.190024 
810.102720  	0.190257 
812.031536  	0.190396 
813.960352  	0.190380 
815.889168  	0.190361 
817.817984  	0.190399 
819.746800  	0.190387 
821.675616  	0.190250 
823.604432  	0.189976 
825.533248  	0.189319 
827.462064  	0.188304 
829.390880  	0.187088 
831.319696  	0.186024 
833.248512  	0.184656 
835.177328  	0.182908 
837.106144  	0.180661 
839.034960  	0.177994 
840.963776  	0.175058 
842.892592  	0.172354 
844.821408  	0.169537 
846.750224  	0.166775 
848.679040  	0.164718 
850.607856  	0.163013 
852.536672  	0.161143 
854.465488  	0.159187 
856.394304  	0.157609 
858.323120  	0.156393 
860.251936  	0.154959 
862.180752  	0.153214 
864.109568  	0.151463 
866.038384  	0.149637 
867.967200  	0.148025 
869.896016  	0.146782 
871.824832  	0.145831 
873.753648  	0.145292 
875.682464  	0.145425 
877.611280  	0.145807 
879.540096  	0.146144 
881.468912  	0.146833 
883.397728  	0.147382 
885.326544  	0.147565 
887.255360  	0.147406 
889.184176  	0.147056 
891.112992  	0.146140 
893.041808  	0.144704 
894.970624  	0.142653 
896.899440  	0.140046 
898.828256  	0.136705 
900.757072  	0.133431 
902.685888  	0.130614 
904.614704  	0.128639 
906.543520  	0.127998 
908.472336  	0.128894 
910.401152  	0.131074 
912.329968  	0.133965 
914.258784  	0.137152 
916.187600  	0.140002 
918.116416  	0.141919 
920.045232  	0.142722 
921.974048  	0.142543 
923.902864  	0.141917 
925.831680  	0.140794 
927.760496  	0.139821 
929.689312  	0.139183 
931.618128  	0.139267 
933.546944  	0.139694 
935.475760  	0.140084 
937.404576  	0.140570 
939.333392  	0.141481 
941.262208  	0.142887 
943.191024  	0.145345 
945.119840  	0.149140 
947.048656  	0.153829 
948.977472  	0.159587 
950.906288  	0.166187 
952.835104  	0.173472 
954.763920  	0.180770 
956.692736  	0.187539 
958.621552  	0.193455 
960.550368  	0.197447 
962.479184  	0.199131 
964.408000  	0.197876 
966.336816  	0.194393 
968.265632  	0.188385 
970.194448  	0.180648 
972.123264  	0.171708 
974.052080  	0.162143 
975.980896  	0.152629 
977.909712  	0.143976 
979.838528  	0.136644 
981.767344  	0.130792 
983.696160  	0.126788 
985.624976  	0.124932 
987.553792  	0.125415 
989.482608  	0.127947 
991.411424  	0.132522 
993.340240  	0.138862 
995.269056  	0.146199 
997.197872  	0.153844 
999.126688  	0.161357 
1001.055504  	0.168993 
1002.984320  	0.176309 
1004.913136  	0.183157 
1006.841952  	0.188923 
1008.770768  	0.193662 
1010.699584  	0.197151 
1012.628400  	0.199738 
1014.557216  	0.201162 
1016.486032  	0.202045 
1018.414848  	0.202546 
1020.343664  	0.202957 
1022.272480  	0.203211 
1024.201296  	0.203284 
1026.130112  	0.202862 
1028.058928  	0.203364 
1029.987744  	0.205120 
1031.916560  	0.207239 
1033.845376  	0.209889 
1035.774192  	0.213060 
1037.703008  	0.216835 
1039.631824  	0.222426 
1041.560640  	0.229342 
1043.489456  	0.238536 
1045.418272  	0.249964 
1047.347088  	0.263250 
1049.275904  	0.276909 
1051.204720  	0.290281 
1053.133536  	0.301436 
1055.062352  	0.310050 
1056.991168  	0.314741 
1058.919984  	0.317192 
1060.848800  	0.316901 
1062.777616  	0.314392 
1064.706432  	0.309300 
1066.635248  	0.304123 
1068.564064  	0.299014 
1070.492880  	0.292907 
1072.421696  	0.285704 
1074.350512  	0.279284 
1076.279328  	0.273839 
1078.208144  	0.269853 
1080.136960  	0.266400 
1082.065776  	0.263072 
1083.994592  	0.259447 
1085.923408  	0.256352 
1087.852224  	0.252241 
1089.781040  	0.247052 
1091.709856  	0.240577 
1093.638672  	0.233173 
1095.567488  	0.224182 
1097.496304  	0.214868 
1099.425120  	0.205059 
1101.353936  	0.195267 
1103.282752  	0.185292 
1105.211568  	0.175033 
1107.140384  	0.165088 
1109.069200  	0.155858 
1110.998016  	0.147527 
1112.926832  	0.139720 
1114.855648  	0.132010 
1116.784464  	0.124486 
1118.713280  	0.117861 
1120.642096  	0.111755 
1122.570912  	0.105691 
1124.499728  	0.100116 
1126.428544  	0.095006 
1128.357360  	0.089911 
1130.286176  	0.085374 
1132.214992  	0.081672 
1134.143808  	0.078382 
1136.072624  	0.075116 
1138.001440  	0.072056 
1139.930256  	0.069381 
1141.859072  	0.067042 
1143.787888  	0.064594 
1145.716704  	0.062662 
1147.645520  	0.061351 
1149.574336  	0.060481 
1151.503152  	0.059911 
1153.431968  	0.059751 
1155.360784  	0.059811 
1157.289600  	0.060333 
1159.218416  	0.061093 
1161.147232  	0.062333 
1163.076048  	0.063802 
1165.004864  	0.065369 
1166.933680  	0.066850 
1168.862496  	0.068882 
1170.791312  	0.071215 
1172.720128  	0.073535 
1174.648944  	0.075761 
1176.577760  	0.078270 
1178.506576  	0.081025 
1180.435392  	0.083873 
1182.364208  	0.086455 
1184.293024  	0.089402 
1186.221840  	0.092583 
1188.150656  	0.096015 
1190.079472  	0.100001 
1192.008288  	0.104578 
1193.937104  	0.109733 
1195.865920  	0.115608 
1197.794736  	0.121782 
1199.723552  	0.128342 
1201.652368  	0.135232 
1203.581184  	0.142232 
1205.510000  	0.148814 
1207.438816  	0.155358 
1209.367632  	0.161721 
1211.296448  	0.167555 
1213.225264  	0.172479 
1215.154080  	0.176610 
1217.082896  	0.180173 
1219.011712  	0.182790 
1220.940528  	0.184956 
1222.869344  	0.186105 
1224.798160  	0.186869 
1226.726976  	0.186995 
1228.655792  	0.186589 
1230.584608  	0.185551 
1232.513424  	0.183890 
1234.442240  	0.181000 
1236.371056  	0.177467 
1238.299872  	0.173325 
1240.228688  	0.168129 
1242.157504  	0.162306 
1244.086320  	0.156436 
1246.015136  	0.149946 
1247.943952  	0.143224 
1249.872768  	0.136510 
1251.801584  	0.130191 
1253.730400  	0.123893 
1255.659216  	0.117926 
1257.588032  	0.112276 
1259.516848  	0.106932 
1261.445664  	0.102039 
1263.374480  	0.097730 
1265.303296  	0.093839 
1267.232112  	0.090645 
1269.160928  	0.088358 
1271.089744  	0.086921 
1273.018560  	0.086406 
1274.947376  	0.086555 
1276.876192  	0.086671 
1278.805008  	0.086116 
1280.733824  	0.084534 
1282.662640  	0.081733 
1284.591456  	0.078067 
1286.520272  	0.074474 
1288.449088  	0.071536 
1290.377904  	0.069164 
1292.306720  	0.067288 
1294.235536  	0.065107 
1296.164352  	0.062133 
1298.093168  	0.058635 
1300.021984  	0.055401 
1301.950800  	0.052248 
1303.879616  	0.049638 
1305.808432  	0.047716 
1307.737248  	0.046263 
1309.666064  	0.044999 
1311.594880  	0.044469 
1313.523696  	0.044269 
1315.452512  	0.044314 
1317.381328  	0.044668 
1319.310144  	0.045285 
1321.238960  	0.046141 
1323.167776  	0.047120 
1325.096592  	0.047662 
1327.025408  	0.047753 
1328.954224  	0.047273 
1330.883040  	0.046440 
1332.811856  	0.045383 
1334.740672  	0.044464 
1336.669488  	0.043522 
1338.598304  	0.042939 
1340.527120  	0.042378 
1342.455936  	0.041941 
1344.384752  	0.042029 
1346.313568  	0.042776 
1348.242384  	0.043935 
1350.171200  	0.045631 
1352.100016  	0.047598 
1354.028832  	0.049548 
1355.957648  	0.051593 
1357.886464  	0.053618 
1359.815280  	0.055225 
1361.744096  	0.056686 
1363.672912  	0.058245 
1365.601728  	0.059235 
1367.530544  	0.059701 
1369.459360  	0.059941 
1371.388176  	0.059400 
1373.316992  	0.058035 
1375.245808  	0.056332 
1377.174624  	0.054913 
1379.103440  	0.053106 
1381.032256  	0.051356 
1382.961072  	0.049979 
1384.889888  	0.049034 
1386.818704  	0.048049 
1388.747520  	0.047025 
1390.676336  	0.045796 
1392.605152  	0.044124 
1394.533968  	0.043015 
1396.462784  	0.043867 
1398.391600  	0.044402 
1400.320416  	0.045054 
1402.249232  	0.045768 
1404.178048  	0.046719 
1406.106864  	0.048109 
1408.035680  	0.049993 
1409.964496  	0.051880 
1411.893312  	0.053916 
1413.822128  	0.055770 
1415.750944  	0.057351 
1417.679760  	0.057701 
1419.608576  	0.057574 
1421.537392  	0.057571 
1423.466208  	0.056902 
1425.395024  	0.055631 
1427.323840  	0.054060 
1429.252656  	0.052076 
1431.181472  	0.050916 
1433.110288  	0.050588 
1435.039104  	0.050304 
1436.967920  	0.050226 
1438.896736  	0.051179 
1440.825552  	0.051806 
1442.754368  	0.052258 
1444.683184  	0.052249 
1446.612000  	0.052058 
1448.540816  	0.052002 
1450.469632  	0.052404 
1452.398448  	0.052551 
1454.327264  	0.052402 
1456.256080  	0.051397 
1458.184896  	0.051688 
1460.113712  	0.053059 
1462.042528  	0.053857 
1463.971344  	0.053828 
1465.900160  	0.055605 
1467.828976  	0.058027 
1469.757792  	0.060233 
1471.686608  	0.062334 
1473.615424  	0.066646 
1475.544240  	0.070197 
1477.473056  	0.072840 
1479.401872  	0.073938 
1481.330688  	0.074174 
1483.259504  	0.073880 
1485.188320  	0.072818 
1487.117136  	0.070574 
1489.045952  	0.068082 
1490.974768  	0.065135 
1492.903584  	0.062603 
1494.832400  	0.059287 
1496.761216  	0.055315 
1498.690032  	0.052375 
1500.618848  	0.050737 
1502.547664  	0.049149 
1504.476480  	0.046537 
1506.405296  	0.043119 
1508.334112  	0.043836 
1510.262928  	0.044290 
1512.191744  	0.043580 
1514.120560  	0.042691 
1516.049376  	0.042100 
1517.978192  	0.042447 
1519.907008  	0.043137 
1521.835824  	0.044650 
1523.764640  	0.047947 
1525.693456  	0.050728 
1527.622272  	0.053410 
1529.551088  	0.055202 
1531.479904  	0.055582 
1533.408720  	0.054616 
1535.337536  	0.054422 
1537.266352  	0.052435 
1539.195168  	0.047499 
1541.123984  	0.044860 
1543.052800  	0.045991 
1544.981616  	0.046125 
1546.910432  	0.045785 
1548.839248  	0.045139 
1550.768064  	0.045155 
1552.696880  	0.044912 
1554.625696  	0.044863 
1556.554512  	0.044026 
1558.483328  	0.042438 
1560.412144  	0.047549 
1562.340960  	0.051662 
1564.269776  	0.053862 
1566.198592  	0.057298 
1568.127408  	0.059760 
1570.056224  	0.064074 
1571.985040  	0.068622 
1573.913856  	0.070366 
1575.842672  	0.070681 
1577.771488  	0.073174 
1579.700304  	0.074141 
1581.629120  	0.074298 
1583.557936  	0.074672 
1585.486752  	0.076335 
1587.415568  	0.079012 
1589.344384  	0.082986 
1591.273200  	0.087503 
1593.202016  	0.092668 
1595.130832  	0.097599 
1597.059648  	0.102478 
1598.988464  	0.106132 
1600.917280  	0.108861 
1602.846096  	0.110269 
1604.774912  	0.111154 
1606.703728  	0.110745 
1608.632544  	0.110266 
1610.561360  	0.109647 
1612.490176  	0.109620 
1614.418992  	0.109151 
1616.347808  	0.109933 
1618.276624  	0.113747 
1620.205440  	0.118079 
1622.134256  	0.121660 
1624.063072  	0.128375 
1625.991888  	0.134781 
1627.920704  	0.141633 
1629.849520  	0.149339 
1631.778336  	0.155785 
1633.707152  	0.159653 
1635.635968  	0.164964 
1637.564784  	0.172379 
1639.493600  	0.177049 
1641.422416  	0.180098 
1643.351232  	0.181804 
1645.280048  	0.181280 
1647.208864  	0.181547 
1649.137680  	0.182607 
1651.066496  	0.181066 
1652.995312  	0.176904 
1654.924128  	0.178742 
1656.852944  	0.178609 
1658.781760  	0.177272 
1660.710576  	0.175301 
1662.639392  	0.173260 
1664.568208  	0.172383 
1666.497024  	0.171221 
1668.425840  	0.168550 
1670.354656  	0.167027 
1672.283472  	0.166905 
1674.212288  	0.166167 
1676.141104  	0.166343 
1678.069920  	0.167384 
1679.998736  	0.167569 
1681.927552  	0.166888 
1683.856368  	0.164922 
1685.785184  	0.166706 
1687.714000  	0.166786 
1689.642816  	0.165326 
1691.571632  	0.163478 
1693.500448  	0.160879 
1695.429264  	0.155884 
1697.358080  	0.151861 
1699.286896  	0.147649 
1701.215712  	0.142495 
1703.144528  	0.139658 
1705.073344  	0.134593 
1707.002160  	0.129377 
1708.930976  	0.125052 
1710.859792  	0.120005 
1712.788608  	0.114246 
1714.717424  	0.107521 
1716.646240  	0.099993 
1718.575056  	0.093405 
1720.503872  	0.088787 
1722.432688  	0.083789 
1724.361504  	0.077739 
1726.290320  	0.072316 
1728.219136  	0.066651 
1730.147952  	0.061085 
1732.076768  	0.055748 
1734.005584  	0.049509 
1735.934400  	0.044714 
1737.863216  	0.041780 
1739.792032  	0.036687 
1741.720848  	0.033411 
1743.649664  	0.030409 
1745.578480  	0.027569 
1747.507296  	0.024452 
1749.436112  	0.022458 
1751.364928  	0.021072 
1753.293744  	0.020294 
1755.222560  	0.018932 
1757.151376  	0.017817 
1759.080192  	0.016829 
1761.009008  	0.016111 
1762.937824  	0.015455 
1764.866640  	0.015608 
1766.795456  	0.014972 
1768.724272  	0.014262 
1770.653088  	0.012623 
1772.581904  	0.011943 
1774.510720  	0.012722 
1776.439536  	0.013358 
1778.368352  	0.013165 
1780.297168  	0.012937 
1782.225984  	0.012706 
1784.154800  	0.012760 
1786.083616  	0.012634 
1788.012432  	0.012542 
1789.941248  	0.011744 
1791.870064  	0.011203 
1793.798880  	0.011187 
1795.727696  	0.011823 
1797.656512  	0.011422 
1799.585328  	0.011000 
1801.514144  	0.010964 
1803.442960  	0.011116 
1805.371776  	0.010897 
1807.300592  	0.010784 
1809.229408  	0.010163 
1811.158224  	0.010272 
1813.087040  	0.010372 
1815.015856  	0.010297 
1816.944672  	0.010069 
1818.873488  	0.010359 
1820.802304  	0.010397 
1822.731120  	0.010293 
1824.659936  	0.009656 
1826.588752  	0.009935 
1828.517568  	0.009472 
1830.446384  	0.009615 
1832.375200  	0.010188 
1834.304016  	0.010339 
1836.232832  	0.010054 
1838.161648  	0.010350 
1840.090464  	0.010147 
1842.019280  	0.009713 
1843.948096  	0.008940 
1845.876912  	0.009579 
1847.805728  	0.009954 
1849.734544  	0.010248 
1851.663360  	0.009994 
1853.592176  	0.010005 
1855.520992  	0.009867 
1857.449808  	0.010250 
1859.378624  	0.010244 
1861.307440  	0.010119 
1863.236256  	0.009694 
1865.165072  	0.009702 
1867.093888  	0.009349 
1869.022704  	0.009537 
1870.951520  	0.009757 
1872.880336  	0.010187 
1874.809152  	0.009902 
1876.737968  	0.009781 
1878.666784  	0.009550 
1880.595600  	0.009822 
1882.524416  	0.009925 
1884.453232  	0.009969 
1886.382048  	0.009613 
1888.310864  	0.009657 
1890.239680  	0.009639 
1892.168496  	0.009938 
1894.097312  	0.009367 
1896.026128  	0.009616 
1897.954944  	0.009536 
1899.883760  	0.009555 
1901.812576  	0.009450 
1903.741392  	0.009967 
1905.670208  	0.009820 
1907.599024  	0.009753 
1909.527840  	0.009471 
1911.456656  	0.009829 
1913.385472  	0.009994 
1915.314288  	0.010400 
1917.243104  	0.010043 
1919.171920  	0.009909 
1921.100736  	0.009703 
1923.029552  	0.010446 
1924.958368  	0.010025 
1926.887184  	0.010062 
1928.816000  	0.009791 
1930.744816  	0.009412 
1932.673632  	0.009161 
1934.602448  	0.010181 
1936.531264  	0.010463 
1938.460080  	0.010191 
1940.388896  	0.009884 
1942.317712  	0.010148 
1944.246528  	0.009918 
1946.175344  	0.010359 
1948.104160  	0.009974 
1950.032976  	0.010120 
1951.961792  	0.010164 
1953.890608  	0.010545 
1955.819424  	0.009982 
1957.748240  	0.010208 
1959.677056  	0.010807 
1961.605872  	0.011051 
1963.534688  	0.009993 
1965.463504  	0.010579 
1967.392320  	0.010385 
1969.321136  	0.010497 
1971.249952  	0.010928 
1973.178768  	0.012089 
1975.107584  	0.011205 
1977.036400  	0.011035 
1978.965216  	0.011680 
1980.894032  	0.011783 
1982.822848  	0.009823 
1984.751664  	0.010592 
1986.680480  	0.011188 
1988.609296  	0.011378 
1990.538112  	0.011327 
1992.466928  	0.012095 
1994.395744  	0.011957 
1996.324560  	0.011242 
1998.253376  	0.010129 
2000.182192  	0.010254 
2002.111008  	0.010046 
2004.039824  	0.010105 
2005.968640  	0.009983 
2007.897456  	0.010754 
2009.826272  	0.010055 
2011.755088  	0.009952 
2013.683904  	0.010445 
2015.612720  	0.011677 
2017.541536  	0.011408 
2019.470352  	0.011338 
2021.399168  	0.009798 
2023.327984  	0.009974 
2025.256800  	0.010002 
2027.185616  	0.010126 
2029.114432  	0.009368 
2031.043248  	0.010629 
2032.972064  	0.011093 
2034.900880  	0.011730 
2036.829696  	0.010500 
2038.758512  	0.010075 
2040.687328  	0.009644 
2042.616144  	0.010021 
2044.544960  	0.010220 
2046.473776  	0.011060 
2048.402592  	0.010922 
2050.331408  	0.011588 
2052.260224  	0.010985 
2054.189040  	0.010797 
2056.117856  	0.009836 
2058.046672  	0.009986 
2059.975488  	0.009743 
2061.904304  	0.009741 
2063.833120  	0.010254 
2065.761936  	0.010796 
2067.690752  	0.010366 
2069.619568  	0.009897 
2071.548384  	0.009210 
2073.477200  	0.009509 
2075.406016  	0.010686 
2077.334832  	0.011113 
2079.263648  	0.010314 
2081.192464  	0.010478 
2083.121280  	0.010974 
2085.050096  	0.011145 
2086.978912  	0.010822 
2088.907728  	0.010598 
2090.836544  	0.009977 
2092.765360  	0.009766 
2094.694176  	0.009800 
2096.622992  	0.010239 
2098.551808  	0.010307 
2100.480624  	0.010497 
2102.409440  	0.010267 
2104.338256  	0.010666 
2106.267072  	0.010888 
2108.195888  	0.010718 
2110.124704  	0.010988 
2112.053520  	0.011335 
2113.982336  	0.010872 
2115.911152  	0.010864 
2117.839968  	0.010363 
2119.768784  	0.009811 
2121.697600  	0.009812 
2123.626416  	0.009810 
2125.555232  	0.009214 
2127.484048  	0.009552 
2129.412864  	0.009448 
2131.341680  	0.008796 
2133.270496  	0.009465 
2135.199312  	0.010678 
2137.128128  	0.010754 
2139.056944  	0.010973 
2140.985760  	0.009902 
2142.914576  	0.010446 
2144.843392  	0.010278 
2146.772208  	0.010650 
2148.701024  	0.011018 
2150.629840  	0.011526 
2152.558656  	0.010040 
2154.487472  	0.008488 
2156.416288  	0.007352 
2158.345104  	0.010223 
2160.273920  	0.014285 
2162.202736  	0.014377 
2164.131552  	0.012928 
2166.060368  	0.013936 
2167.989184  	0.012873 
2169.918000  	0.012230 
2171.846816  	0.011708 
2173.775632  	0.011312 
2175.704448  	0.011732 
2177.633264  	0.012978 
2179.562080  	0.012652 
2181.490896  	0.012463 
2183.419712  	0.011977 
2185.348528  	0.012304 
2187.277344  	0.012253 
2189.206160  	0.012318 
2191.134976  	0.012686 
2193.063792  	0.013560 
2194.992608  	0.013165 
2196.921424  	0.012411 
2198.850240  	0.012225 
2200.779056  	0.012348 
2202.707872  	0.012231 
2204.636688  	0.012317 
2206.565504  	0.012379 
2208.494320  	0.012783 
2210.423136  	0.011422 
2212.351952  	0.011039 
2214.280768  	0.011536 
2216.209584  	0.011521 
2218.138400  	0.011118 
2220.067216  	0.011471 
2221.996032  	0.011545 
2223.924848  	0.011263 
2225.853664  	0.011771 
2227.782480  	0.012209 
2229.711296  	0.011909 
2231.640112  	0.011836 
2233.568928  	0.011244 
2235.497744  	0.011139 
2237.426560  	0.010817 
2239.355376  	0.011057 
2241.284192  	0.010816 
2243.213008  	0.010656 
2245.141824  	0.011020 
2247.070640  	0.010842 
2248.999456  	0.010409 
2250.928272  	0.010623 
2252.857088  	0.010674 
2254.785904  	0.010741 
2256.714720  	0.011240 
2258.643536  	0.011872 
2260.572352  	0.011505 
2262.501168  	0.011468 
2264.429984  	0.011202 
2266.358800  	0.011709 
2268.287616  	0.012107 
2270.216432  	0.012178 
2272.145248  	0.012047 
2274.074064  	0.012388 
2276.002880  	0.012218 
2277.931696  	0.012370 
2279.860512  	0.012546 
2281.789328  	0.012583 
2283.718144  	0.012673 
2285.646960  	0.012793 
2287.575776  	0.012733 
2289.504592  	0.012414 
2291.433408  	0.012138 
2293.362224  	0.012312 
2295.291040  	0.012324 
2297.219856  	0.012556 
2299.148672  	0.012733 
2301.077488  	0.012742 
2303.006304  	0.012737 
2304.935120  	0.012755 
2306.863936  	0.012489 
2308.792752  	0.012390 
2310.721568  	0.012431 
2312.650384  	0.012294 
2314.579200  	0.011820 
2316.508016  	0.011672 
2318.436832  	0.011356 
2320.365648  	0.011058 
2322.294464  	0.010738 
2324.223280  	0.010119 
2326.152096  	0.008578 
2328.080912  	0.007576 
2330.009728  	0.007089 
2331.938544  	0.006603 
2333.867360  	0.005714 
2335.796176  	0.005060 
2337.724992  	0.004802 
2339.653808  	0.004811 
2341.582624  	0.004810 
2343.511440  	0.005854 
2345.440256  	0.007183 
2347.369072  	0.008726 
2349.297888  	0.009084 
2351.226704  	0.007756 
2353.155520  	0.006040 
2355.084336  	0.004515 
2357.013152  	0.003143 
2358.941968  	0.002031 
2360.870784  	0.001574 
2362.799600  	0.002394 
2364.728416  	0.003043 
2366.657232  	0.003876 
2368.586048  	0.005159 
2370.514864  	0.007067 
2372.443680  	0.008536 
2374.372496  	0.010037 
2376.301312  	0.011248 
2378.230128  	0.012045 
2380.158944  	0.012374 
2382.087760  	0.012482 
2384.016576  	0.012450 
2385.945392  	0.012565 
2387.874208  	0.012422 
2389.803024  	0.012259 
2391.731840  	0.012047 
2393.660656  	0.012083 
2395.589472  	0.012184 
2397.518288  	0.012346 
2399.447104  	0.012292 
2401.375920  	0.012112 
2403.304736  	0.012237 
2405.233552  	0.012510 
2407.162368  	0.012648 
2409.091184  	0.012609 
2411.020000  	0.012605 
2412.948816  	0.012651 
2414.877632  	0.012611 
2416.806448  	0.012794 
2418.735264  	0.013003 
2420.664080  	0.013050 
2422.592896  	0.012887 
2424.521712  	0.012960 
2426.450528  	0.012974 
2428.379344  	0.012716 
2430.308160  	0.012889 
2432.236976  	0.013252 
2434.165792  	0.013332 
2436.094608  	0.013623 
2438.023424  	0.013887 
2439.952240  	0.014105 
2441.881056  	0.014068 
2443.809872  	0.013992 
2445.738688  	0.014096 
2447.667504  	0.014266 
2449.596320  	0.014243 
2451.525136  	0.014288 
2453.453952  	0.014295 
2455.382768  	0.014593 
2457.311584  	0.014752 
2459.240400  	0.014608 
2461.169216  	0.014538 
2463.098032  	0.014601 
2465.026848  	0.014522 
2466.955664  	0.014561 
2468.884480  	0.014576 
2470.813296  	0.014671 
2472.742112  	0.014624 
2474.670928  	0.014674 
2476.599744  	0.014736 
2478.528560  	0.014808 
2480.457376  	0.014941 
2482.386192  	0.014951 
2484.315008  	0.014961 
2486.243824  	0.015127 
2488.172640  	0.015124 
2490.101456  	0.015266 
2492.030272  	0.015473 
2493.959088  	0.015338 
2495.887904  	0.015196 
2497.816720  	0.015458 
2499.745536  	0.015708 
2501.674352  	0.015912 
2503.603168  	0.015941 
2505.531984  	0.015818 
2507.460800  	0.015788 
2509.389616  	0.015754 
2511.318432  	0.015578 
2513.247248  	0.015637 
2515.176064  	0.015891 
2517.104880  	0.016335 
2519.033696  	0.016487 
2520.962512  	0.016401 
2522.891328  	0.016510 
2524.820144  	0.016737 
2526.748960  	0.016872 
2528.677776  	0.017101 
2530.606592  	0.017100 
2532.535408  	0.017000 
2534.464224  	0.016998 
2536.393040  	0.017195 
2538.321856  	0.017067 
2540.250672  	0.017040 
2542.179488  	0.017194 
2544.108304  	0.017469 
2546.037120  	0.017400 
2547.965936  	0.017628 
2549.894752  	0.017860 
2551.823568  	0.017925 
2553.752384  	0.017988 
2555.681200  	0.018106 
2557.610016  	0.018170 
2559.538832  	0.018175 
2561.467648  	0.018146 
2563.396464  	0.018434 
2565.325280  	0.018658 
2567.254096  	0.018792 
2569.182912  	0.018450 
2571.111728  	0.018099 
2573.040544  	0.017925 
2574.969360  	0.018004 
2576.898176  	0.018466 
2578.826992  	0.018975 
2580.755808  	0.018829 
2582.684624  	0.018686 
2584.613440  	0.018694 
2586.542256  	0.018918 
2588.471072  	0.018992 
2590.399888  	0.018970 
2592.328704  	0.019111 
2594.257520  	0.019351 
2596.186336  	0.019586 
2598.115152  	0.019625 
2600.043968  	0.019517 
2601.972784  	0.019642 
2603.901600  	0.019682 
2605.830416  	0.019775 
2607.759232  	0.019718 
2609.688048  	0.019946 
2611.616864  	0.020054 
2613.545680  	0.020112 
2615.474496  	0.020170 
2617.403312  	0.020282 
2619.332128  	0.020489 
2621.260944  	0.020671 
2623.189760  	0.020677 
2625.118576  	0.020688 
2627.047392  	0.020767 
2628.976208  	0.020989 
2630.905024  	0.021129 
2632.833840  	0.021341 
2634.762656  	0.021549 
2636.691472  	0.021527 
2638.620288  	0.021564 
2640.549104  	0.021684 
2642.477920  	0.021777 
2644.406736  	0.021857 
2646.335552  	0.022092 
2648.264368  	0.022361 
2650.193184  	0.022523 
2652.122000  	0.022654 
2654.050816  	0.022686 
2655.979632  	0.022669 
2657.908448  	0.022760 
2659.837264  	0.022935 
2661.766080  	0.022973 
2663.694896  	0.023032 
2665.623712  	0.023077 
2667.552528  	0.023067 
2669.481344  	0.023211 
2671.410160  	0.023513 
2673.338976  	0.023671 
2675.267792  	0.023768 
2677.196608  	0.023844 
2679.125424  	0.024038 
2681.054240  	0.024103 
2682.983056  	0.024205 
2684.911872  	0.024388 
2686.840688  	0.024468 
2688.769504  	0.024493 
2690.698320  	0.024665 
2692.627136  	0.024902 
2694.555952  	0.024970 
2696.484768  	0.024887 
2698.413584  	0.024996 
2700.342400  	0.025111 
2702.271216  	0.025210 
2704.200032  	0.025386 
2706.128848  	0.025574 
2708.057664  	0.025779 
2709.986480  	0.025903 
2711.915296  	0.025851 
2713.844112  	0.025909 
2715.772928  	0.026110 
2717.701744  	0.026360 
2719.630560  	0.026405 
2721.559376  	0.026417 
2723.488192  	0.026631 
2725.417008  	0.026971 
2727.345824  	0.027068 
2729.274640  	0.026990 
2731.203456  	0.027051 
2733.132272  	0.027192 
2735.061088  	0.027381 
2736.989904  	0.027505 
2738.918720  	0.027531 
2740.847536  	0.027508 
2742.776352  	0.027547 
2744.705168  	0.027769 
2746.633984  	0.027925 
2748.562800  	0.028072 
2750.491616  	0.028179 
2752.420432  	0.028184 
2754.349248  	0.028229 
2756.278064  	0.028315 
2758.206880  	0.028361 
2760.135696  	0.028570 
2762.064512  	0.028606 
2763.993328  	0.028542 
2765.922144  	0.028645 
2767.850960  	0.028800 
2769.779776  	0.028809 
2771.708592  	0.028818 
2773.637408  	0.028835 
2775.566224  	0.028957 
2777.495040  	0.029025 
2779.423856  	0.029134 
2781.352672  	0.029387 
2783.281488  	0.029580 
2785.210304  	0.029576 
2787.139120  	0.029652 
2789.067936  	0.029732 
2790.996752  	0.029918 
2792.925568  	0.030115 
2794.854384  	0.030139 
2796.783200  	0.030106 
2798.712016  	0.030080 
2800.640832  	0.030225 
2802.569648  	0.030456 
2804.498464  	0.030504 
2806.427280  	0.030530 
2808.356096  	0.030714 
2810.284912  	0.030912 
2812.213728  	0.030932 
2814.142544  	0.030949 
2816.071360  	0.031153 
2818.000176  	0.031138 
2819.928992  	0.031043 
2821.857808  	0.031090 
2823.786624  	0.031128 
2825.715440  	0.031144 
2827.644256  	0.031042 
2829.573072  	0.031101 
2831.501888  	0.031058 
2833.430704  	0.030941 
2835.359520  	0.030926 
2837.288336  	0.030861 
2839.217152  	0.030885 
2841.145968  	0.030828 
2843.074784  	0.030699 
2845.003600  	0.030607 
2846.932416  	0.030605 
2848.861232  	0.030681 
2850.790048  	0.030702 
2852.718864  	0.030667 
2854.647680  	0.030602 
2856.576496  	0.030557 
2858.505312  	0.030513 
2860.434128  	0.030563 
2862.362944  	0.030485 
2864.291760  	0.030335 
2866.220576  	0.030200 
2868.149392  	0.030384 
2870.078208  	0.030727 
2872.007024  	0.031031 
2873.935840  	0.031355 
2875.864656  	0.031699 
2877.793472  	0.032117 
2879.722288  	0.032351 
2881.651104  	0.032370 
2883.579920  	0.032531 
2885.508736  	0.032784 
2887.437552  	0.032975 
2889.366368  	0.033161 
2891.295184  	0.033195 
2893.224000  	0.033103 
2895.152816  	0.033250 
2897.081632  	0.033170 
2899.010448  	0.032763 
2900.939264  	0.032362 
2902.868080  	0.032750 
2904.796896  	0.033292 
2906.725712  	0.033475 
2908.654528  	0.033569 
2910.583344  	0.033832 
2912.512160  	0.034381 
2914.440976  	0.035073 
2916.369792  	0.035545 
2918.298608  	0.035996 
2920.227424  	0.036588 
2922.156240  	0.037301 
2924.085056  	0.037821 
2926.013872  	0.038434 
2927.942688  	0.039252 
2929.871504  	0.040096 
2931.800320  	0.040641 
2933.729136  	0.040989 
2935.657952  	0.041396 
2937.586768  	0.041903 
2939.515584  	0.042109 
2941.444400  	0.042180 
2943.373216  	0.042459 
2945.302032  	0.042728 
2947.230848  	0.042670 
2949.159664  	0.042341 
2951.088480  	0.042051 
2953.017296  	0.041993 
2954.946112  	0.041714 
2956.874928  	0.041346 
2958.803744  	0.040935 
2960.732560  	0.040577 
2962.661376  	0.040342 
2964.590192  	0.039982 
2966.519008  	0.039525 
2968.447824  	0.038976 
2970.376640  	0.038664 
2972.305456  	0.038296 
2974.234272  	0.037994 
2976.163088  	0.037898 
2978.091904  	0.037765 
2980.020720  	0.037669 
2981.949536  	0.037616 
2983.878352  	0.037440 
2985.807168  	0.037160 
2987.735984  	0.036971 
2989.664800  	0.037082 
2991.593616  	0.037912 
2993.522432  	0.038266 
2995.451248  	0.038313 
2997.380064  	0.038725 
2999.308880  	0.039165 
3001.237696  	0.039594 
3003.166512  	0.039967 
3005.095328  	0.040402 
3007.024144  	0.040905 
3008.952960  	0.041475 
3010.881776  	0.042027 
3012.810592  	0.042507 
3014.739408  	0.042984 
3016.668224  	0.043548 
3018.597040  	0.043878 
3020.525856  	0.044105 
3022.454672  	0.044398 
3024.383488  	0.044837 
3026.312304  	0.045309 
3028.241120  	0.045591 
3030.169936  	0.045744 
3032.098752  	0.046220 
3034.027568  	0.046410 
3035.956384  	0.046369 
3037.885200  	0.046644 
3039.814016  	0.047109 
3041.742832  	0.047494 
3043.671648  	0.047810 
3045.600464  	0.048076 
3047.529280  	0.048258 
3049.458096  	0.048519 
3051.386912  	0.048729 
3053.315728  	0.048943 
3055.244544  	0.049337 
3057.173360  	0.049818 
3059.102176  	0.050159 
3061.030992  	0.050495 
3062.959808  	0.050841 
3064.888624  	0.051208 
3066.817440  	0.051669 
3068.746256  	0.052113 
3070.675072  	0.052319 
3072.603888  	0.052733 
3074.532704  	0.053260 
3076.461520  	0.053656 
3078.390336  	0.053773 
3080.319152  	0.054024 
3082.247968  	0.054643 
3084.176784  	0.055018 
3086.105600  	0.055150 
3088.034416  	0.055547 
3089.963232  	0.055995 
3091.892048  	0.056280 
3093.820864  	0.056564 
3095.749680  	0.056885 
3097.678496  	0.056997 
3099.607312  	0.057332 
3101.536128  	0.057647 
3103.464944  	0.058018 
3105.393760  	0.058312 
3107.322576  	0.058588 
3109.251392  	0.058897 
3111.180208  	0.059124 
3113.109024  	0.059346 
3115.037840  	0.059535 
3116.966656  	0.059805 
3118.895472  	0.060076 
3120.824288  	0.060183 
3122.753104  	0.060367 
3124.681920  	0.060536 
3126.610736  	0.060649 
3128.539552  	0.060832 
3130.468368  	0.061043 
3132.397184  	0.061235 
3134.326000  	0.061386 
3136.254816  	0.061672 
3138.183632  	0.062001 
3140.112448  	0.062123 
3142.041264  	0.062236 
3143.970080  	0.062487 
3145.898896  	0.062725 
3147.827712  	0.062872 
3149.756528  	0.063211 
3151.685344  	0.063671 
3153.614160  	0.063976 
3155.542976  	0.064061 
3157.471792  	0.064091 
3159.400608  	0.064484 
3161.329424  	0.064836 
3163.258240  	0.064994 
3165.187056  	0.065412 
3167.115872  	0.065712 
3169.044688  	0.065705 
3170.973504  	0.065635 
3172.902320  	0.065790 
3174.831136  	0.066083 
3176.759952  	0.066211 
3178.688768  	0.066472 
3180.617584  	0.066640 
3182.546400  	0.066522 
3184.475216  	0.066828 
3186.404032  	0.067000 
3188.332848  	0.066905 
3190.261664  	0.067099 
3192.190480  	0.067126 
3194.119296  	0.066839 
3196.048112  	0.066698 
3197.976928  	0.067051 
3199.905744  	0.067233 
3201.834560  	0.067166 
3203.763376  	0.067199 
3205.692192  	0.067164 
3207.621008  	0.066978 
3209.549824  	0.066691 
3211.478640  	0.066393 
3213.407456  	0.066116 
3215.336272  	0.066264 
3217.265088  	0.066306 
3219.193904  	0.065914 
3221.122720  	0.065619 
3223.051536  	0.065464 
3224.980352  	0.065373 
3226.909168  	0.065101 
3228.837984  	0.064753 
3230.766800  	0.064740 
3232.695616  	0.064757 
3234.624432  	0.064606 
3236.553248  	0.064515 
3238.482064  	0.064452 
3240.410880  	0.064361 
3242.339696  	0.064165 
3244.268512  	0.064072 
3246.197328  	0.064083 
3248.126144  	0.063951 
3250.054960  	0.063867 
3251.983776  	0.063881 
3253.912592  	0.063961 
3255.841408  	0.064036 
3257.770224  	0.064079 
3259.699040  	0.064246 
3261.627856  	0.064406 
3263.556672  	0.064322 
3265.485488  	0.064153 
3267.414304  	0.064239 
3269.343120  	0.064451 
3271.271936  	0.064590 
3273.200752  	0.064686 
3275.129568  	0.064731 
3277.058384  	0.064643 
3278.987200  	0.064825 
3280.916016  	0.065007 
3282.844832  	0.065074 
3284.773648  	0.065153 
3286.702464  	0.065239 
3288.631280  	0.065418 
3290.560096  	0.065527 
3292.488912  	0.065677 
3294.417728  	0.065784 
3296.346544  	0.065901 
3298.275360  	0.065985 
3300.204176  	0.066313 
3302.132992  	0.066518 
3304.061808  	0.066685 
3305.990624  	0.066940 
3307.919440  	0.066955 
3309.848256  	0.067034 
3311.777072  	0.067006 
3313.705888  	0.067185 
3315.634704  	0.067623 
3317.563520  	0.067908 
3319.492336  	0.067961 
3321.421152  	0.067883 
3323.349968  	0.068036 
3325.278784  	0.068352 
3327.207600  	0.068498 
3329.136416  	0.068350 
3331.065232  	0.068180 
3332.994048  	0.068243 
3334.922864  	0.068136 
3336.851680  	0.067916 
3338.780496  	0.068032 
3340.709312  	0.068012 
3342.638128  	0.067745 
3344.566944  	0.067563 
3346.495760  	0.067416 
3348.424576  	0.067258 
3350.353392  	0.067005 
3352.282208  	0.066735 
3354.211024  	0.066523 
3356.139840  	0.066244 
3358.068656  	0.066026 
3359.997472  	0.065922 
3361.926288  	0.065622 
3363.855104  	0.065236 
3365.783920  	0.065005 
3367.712736  	0.064918 
3369.641552  	0.064527 
3371.570368  	0.064101 
3373.499184  	0.063738 
3375.428000  	0.063339 
3377.356816  	0.063051 
3379.285632  	0.062857 
3381.214448  	0.062721 
3383.143264  	0.062533 
3385.072080  	0.062423 
3387.000896  	0.061991 
3388.929712  	0.061650 
3390.858528  	0.061348 
3392.787344  	0.060871 
3394.716160  	0.060448 
3396.644976  	0.060186 
3398.573792  	0.059853 
3400.502608  	0.059276 
3402.431424  	0.058899 
3404.360240  	0.058592 
3406.289056  	0.058140 
3408.217872  	0.057859 
3410.146688  	0.057620 
3412.075504  	0.057551 
3414.004320  	0.057401 
3415.933136  	0.056913 
3417.861952  	0.056298 
3419.790768  	0.055991 
3421.719584  	0.055653 
3423.648400  	0.055189 
3425.577216  	0.054960 
3427.506032  	0.054599 
3429.434848  	0.054149 
3431.363664  	0.053933 
3433.292480  	0.053771 
3435.221296  	0.053538 
3437.150112  	0.053131 
3439.078928  	0.052689 
3441.007744  	0.052207 
3442.936560  	0.051925 
3444.865376  	0.051447 
3446.794192  	0.050690 
3448.723008  	0.050393 
3450.651824  	0.050112 
3452.580640  	0.049648 
3454.509456  	0.049184 
3456.438272  	0.048722 
3458.367088  	0.048480 
3460.295904  	0.048235 
3462.224720  	0.047673 
3464.153536  	0.047099 
3466.082352  	0.046625 
3468.011168  	0.046226 
3469.939984  	0.045771 
3471.868800  	0.045273 
3473.797616  	0.044882 
3475.726432  	0.044323 
3477.655248  	0.043714 
3479.584064  	0.043292 
3481.512880  	0.042909 
3483.441696  	0.042243 
3485.370512  	0.041522 
3487.299328  	0.041181 
3489.228144  	0.040812 
3491.156960  	0.040216 
3493.085776  	0.039799 
3495.014592  	0.039454 
3496.943408  	0.039088 
3498.872224  	0.038491 
3500.801040  	0.038047 
3502.729856  	0.037592 
3504.658672  	0.037231 
3506.587488  	0.036617 
3508.516304  	0.036084 
3510.445120  	0.035887 
3512.373936  	0.035743 
3514.302752  	0.035372 
3516.231568  	0.034941 
3518.160384  	0.034480 
3520.089200  	0.034194 
3522.018016  	0.033923 
3523.946832  	0.033682 
3525.875648  	0.033281 
3527.804464  	0.032731 
3529.733280  	0.032409 
3531.662096  	0.032103 
3533.590912  	0.031655 
3535.519728  	0.031419 
3537.448544  	0.031251 
3539.377360  	0.030895 
3541.306176  	0.030448 
3543.234992  	0.029955 
3545.163808  	0.029680 
3547.092624  	0.029260 
3549.021440  	0.028564 
3550.950256  	0.027948 
3552.879072  	0.027848 
3554.807888  	0.027905 
3556.736704  	0.027610 
3558.665520  	0.027390 
3560.594336  	0.027290 
3562.523152  	0.026677 
3564.451968  	0.025826 
3566.380784  	0.025308 
3568.309600  	0.025262 
3570.238416  	0.024993 
3572.167232  	0.024497 
3574.096048  	0.024043 
3576.024864  	0.023679 
3577.953680  	0.023395 
3579.882496  	0.023030 
3581.811312  	0.022856 
3583.740128  	0.022344 
3585.668944  	0.021375 
3587.597760  	0.020944 
3589.526576  	0.020795 
3591.455392  	0.019974 
3593.384208  	0.019501 
3595.313024  	0.019126 
3597.241840  	0.018706 
3599.170656  	0.017890 
3601.099472  	0.017452 
3603.028288  	0.017539 
3604.957104  	0.017047 
3606.885920  	0.016161 
3608.814736  	0.016006 
3610.743552  	0.015430 
3612.672368  	0.014345 
3614.601184  	0.013758 
3616.530000  	0.012977 
3618.458816  	0.012095 
3620.387632  	0.012219 
3622.316448  	0.012407 
3624.245264  	0.012174 
3626.174080  	0.011074 
3628.102896  	0.009472 
3630.031712  	0.009689 
3631.960528  	0.009859 
3633.889344  	0.009303 
3635.818160  	0.008789 
3637.746976  	0.008415 
3639.675792  	0.008472 
3641.604608  	0.008092 
3643.533424  	0.007234 
3645.462240  	0.005836 
3647.391056  	0.003911 
3649.319872  	0.002842 
3651.248688  	0.004304 
3653.177504  	0.005128 
3655.106320  	0.004227 
3657.035136  	0.003808 
3658.963952  	0.003878 
3660.892768  	0.003491 
3662.821584  	0.003052 
3664.750400  	0.002964 
3666.679216  	0.002229 
3668.608032  	0.000550 
3670.536848  	0.000208 
3672.465664  	0.001052 
3674.394480  	-0.000635 
3676.323296  	-0.000529 
3678.252112  	0.001104 
3680.180928  	0.001399 
3682.109744  	0.001504 
3684.038560  	0.001365 
3685.967376  	0.000574 
3687.896192  	-0.000917 
3689.825008  	-0.001227 
3691.753824  	-0.000276 
3693.682640  	0.000706 
3695.611456  	0.000835 
3697.540272  	0.000898 
3699.469088  	0.000828 
3701.397904  	0.000898 
3703.326720  	0.001365 
3705.255536  	0.001424 
3707.184352  	0.000826 
3709.113168  	-0.000089 
3711.041984  	-0.000460 
3712.970800  	0.000503 
3714.899616  	0.001376 
3716.828432  	0.001326 
3718.757248  	0.000956 
3720.686064  	0.000476 
3722.614880  	0.000708 
3724.543696  	0.001205 
3726.472512  	0.001382 
3728.401328  	0.001129 
3730.330144  	-0.000188 
3732.258960  	-0.001376 
3734.187776  	-0.000888 
3736.116592  	0.000489 
3738.045408  	0.000822 
3739.974224  	0.000557 
3741.903040  	0.000244 
3743.831856  	0.000046 
3745.760672  	0.000687 
3747.689488  	-0.000354 
3749.618304  	-0.001762 
3751.547120  	-0.001216 
3753.475936  	0.000888 
3755.404752  	0.001397 
3757.333568  	0.000850 
3759.262384  	0.000597 
3761.191200  	0.001361 
3763.120016  	0.001697 
3765.048832  	0.001346 
3766.977648  	0.001373 
3768.906464  	0.000882 
3770.835280  	0.001274 
3772.764096  	0.002091 
3774.692912  	0.001983 
3776.621728  	0.001370 
3778.550544  	0.000871 
3780.479360  	0.001280 
3782.408176  	0.001493 
3784.336992  	0.001275 
3786.265808  	0.001651 
3788.194624  	0.001976 
3790.123440  	0.001950 
3792.052256  	0.001921 
3793.981072  	0.001500 
3795.909888  	0.000737 
3797.838704  	0.000929 
3799.767520  	0.000222 
3801.696336  	-0.000227 
3803.625152  	0.000721 
3805.553968  	0.000377 
3807.482784  	0.000686 
3809.411600  	0.001787 
3811.340416  	0.001963 
3813.269232  	0.001440 
3815.198048  	0.000168 
3817.126864  	0.000374 
3819.055680  	0.000057 
3820.984496  	-0.000584 
3822.913312  	0.000805 
3824.842128  	0.001114 
3826.770944  	0.001137 
3828.699760  	0.001415 
3830.628576  	0.000796 
3832.557392  	0.000514 
3834.486208  	0.000139 
3836.415024  	-0.000654 
3838.343840  	-0.000604 
3840.272656  	-0.000055 
3842.201472  	0.000482 
3844.130288  	0.000965 
3846.059104  	0.001664 
3847.987920  	0.001613 
3849.916736  	0.000730 
3851.845552  	-0.001066 
3853.774368  	-0.000958 
3855.703184  	0.000848 
3857.632000  	0.001258 
3859.560816  	0.001223 
3861.489632  	0.000911 
3863.418448  	0.000701 
3865.347264  	0.000879 
3867.276080  	0.000910 
3869.204896  	0.000487 
3871.133712  	0.001426 
3873.062528  	0.001325 
3874.991344  	0.001478 
3876.920160  	0.001729 
3878.848976  	0.001294 
3880.777792  	0.001455 
3882.706608  	0.001830 
3884.635424  	0.001283 
3886.564240  	0.001491 
3888.493056  	0.001556 
3890.421872  	0.001131 
3892.350688  	0.001393 
3894.279504  	0.001674 
3896.208320  	0.001599 
3898.137136  	0.001297 
3900.065952  	0.001062 
3901.994768  	0.001019 
3903.923584  	0.001319 
3905.852400  	0.001960 
3907.781216  	0.002035 
3909.710032  	0.001944 
3911.638848  	0.001983 
3913.567664  	0.001986 
3915.496480  	0.001907 
3917.425296  	0.002190 
3919.354112  	0.002250 
3921.282928  	0.002286 
3923.211744  	0.002162 
3925.140560  	0.002113 
3927.069376  	0.002007 
3928.998192  	0.001852 
3930.927008  	0.002095 
3932.855824  	0.002505 
3934.784640  	0.002397 
3936.713456  	0.002271 
3938.642272  	0.002133 
3940.571088  	0.001908 
3942.499904  	0.002229 
3944.428720  	0.002625 
3946.357536  	0.002316 
3948.286352  	0.002116 
3950.215168  	0.002003 
3952.143984  	0.001857 
3954.072800  	0.002000 
3956.001616  	0.002180 
3957.930432  	0.002310 
3959.859248  	0.002412 
3961.788064  	0.002288 
3963.716880  	0.002285 
3965.645696  	0.002185 
3967.574512  	0.002245 
3969.503328  	0.002173 
3971.432144  	0.002045 
3973.360960  	0.002124 
3975.289776  	0.002371 
3977.218592  	0.002457 
3979.147408  	0.002487 
3981.076224  	0.002469 
3983.005040  	0.002297 
3984.933856  	0.002341 
3986.862672  	0.002484 
3988.791488  	0.002352 
3990.720304  	0.002300 
3992.649120  	0.002352 
3994.577936  	0.002348 
3996.506752  	0.002233 
3998.435568  	0.002255 
4000.364384  	0.002372 