##TITLE=No Description
##DATA TYPE=INFRARED SPECTRUM
##XUNITS=1/CM
##YUNITS=Abs
399.264912  	0.598777 
401.193728  	0.579389 
403.122544  	0.578103 
405.051360  	0.563734 
406.980176  	0.548240 
408.908992  	0.538135 
410.837808  	0.545096 
412.766624  	0.542762 
414.695440  	0.551456 
416.624256  	0.549216 
418.553072  	0.532815 
420.481888  	0.516963 
422.410704  	0.526254 
424.339520  	0.523004 
426.268336  	0.523101 
428.197152  	0.524576 
430.125968  	0.519394 
432.054784  	0.504059 
433.983600  	0.506827 
435.912416  	0.506839 
437.841232  	0.501909 
439.770048  	0.495828 
441.698864  	0.495749 
443.627680  	0.492903 
445.556496  	0.495049 
447.485312  	0.494116 
449.414128  	0.493192 
451.342944  	0.488940 
453.271760  	0.488694 
455.200576  	0.485220 
457.129392  	0.485313 
459.058208  	0.484118 
460.987024  	0.485298 
462.915840  	0.483774 
464.844656  	0.485633 
466.773472  	0.487938 
468.702288  	0.490920 
470.631104  	0.487603 
472.559920  	0.483609 
474.488736  	0.479522 
476.417552  	0.486035 
478.346368  	0.484806 
480.275184  	0.484203 
482.204000  	0.483335 
484.132816  	0.482274 
486.061632  	0.480890 
487.990448  	0.480684 
489.919264  	0.477729 
491.848080  	0.478358 
493.776896  	0.475765 
495.705712  	0.473726 
497.634528  	0.471893 
499.563344  	0.473574 
501.492160  	0.471497 
503.420976  	0.469460 
505.349792  	0.468176 
507.278608  	0.470092 
509.207424  	0.471153 
511.136240  	0.474041 
513.065056  	0.474046 
514.993872  	0.474530 
516.922688  	0.474384 
518.851504  	0.474971 
520.780320  	0.472389 
522.709136  	0.472869 
524.637952  	0.470346 
526.566768  	0.467412 
528.495584  	0.465093 
530.424400  	0.465122 
532.353216  	0.461628 
534.282032  	0.456610 
536.210848  	0.451570 
538.139664  	0.449489 
540.068480  	0.446119 
541.997296  	0.441466 
543.926112  	0.436912 
545.854928  	0.434971 
547.783744  	0.431754 
549.712560  	0.428108 
551.641376  	0.423568 
553.570192  	0.420973 
555.499008  	0.418136 
557.427824  	0.415297 
559.356640  	0.411186 
561.285456  	0.408592 
563.214272  	0.405615 
565.143088  	0.401678 
567.071904  	0.396915 
569.000720  	0.393752 
570.929536  	0.390139 
572.858352  	0.386665 
574.787168  	0.383649 
576.715984  	0.381036 
578.644800  	0.376758 
580.573616  	0.372754 
582.502432  	0.368676 
584.431248  	0.366093 
586.360064  	0.362860 
588.288880  	0.361079 
590.217696  	0.359689 
592.146512  	0.358323 
594.075328  	0.356020 
596.004144  	0.353632 
597.932960  	0.352104 
599.861776  	0.351983 
601.790592  	0.351542 
603.719408  	0.350319 
605.648224  	0.348751 
607.577040  	0.348269 
609.505856  	0.347809 
611.434672  	0.347067 
613.363488  	0.344701 
615.292304  	0.342559 
617.221120  	0.340552 
619.149936  	0.339043 
621.078752  	0.336524 
623.007568  	0.334836 
624.936384  	0.332813 
626.865200  	0.331456 
628.794016  	0.330185 
630.722832  	0.329066 
632.651648  	0.328007 
634.580464  	0.327595 
636.509280  	0.327680 
638.438096  	0.327522 
640.366912  	0.327428 
642.295728  	0.326240 
644.224544  	0.323246 
646.153360  	0.320066 
648.082176  	0.316238 
650.010992  	0.313137 
651.939808  	0.310226 
653.868624  	0.306791 
655.797440  	0.302972 
657.726256  	0.299971 
659.655072  	0.296779 
661.583888  	0.293212 
663.512704  	0.289636 
665.441520  	0.287062 
667.370336  	0.282347 
669.299152  	0.277541 
671.227968  	0.276841 
673.156784  	0.275056 
675.085600  	0.272634 
677.014416  	0.270619 
678.943232  	0.269352 
680.872048  	0.268189 
682.800864  	0.266702 
684.729680  	0.265417 
686.658496  	0.263383 
688.587312  	0.261687 
690.516128  	0.260054 
692.444944  	0.258479 
694.373760  	0.256767 
696.302576  	0.255159 
698.231392  	0.253134 
700.160208  	0.250845 
702.089024  	0.248265 
704.017840  	0.246671 
705.946656  	0.244575 
707.875472  	0.242108 
709.804288  	0.240158 
711.733104  	0.239187 
713.661920  	0.237717 
715.590736  	0.236803 
717.519552  	0.236597 
719.448368  	0.237321 
721.377184  	0.238636 
723.306000  	0.239883 
725.234816  	0.239642 
727.163632  	0.238061 
729.092448  	0.235597 
731.021264  	0.233074 
732.950080  	0.230220 
734.878896  	0.227263 
736.807712  	0.225087 
738.736528  	0.223443 
740.665344  	0.221877 
742.594160  	0.220456 
744.522976  	0.219311 
746.451792  	0.218553 
748.380608  	0.217522 
750.309424  	0.216544 
752.238240  	0.215902 
754.167056  	0.215881 
756.095872  	0.215249 
758.024688  	0.214448 
759.953504  	0.214124 
761.882320  	0.214178 
763.811136  	0.214173 
765.739952  	0.213857 
767.668768  	0.213189 
769.597584  	0.212093 
771.526400  	0.211896 
773.455216  	0.213923 
775.384032  	0.216806 
777.312848  	0.220344 
779.241664  	0.224180 
781.170480  	0.225098 
783.099296  	0.222225 
785.028112  	0.217336 
786.956928  	0.211455 
788.885744  	0.206671 
790.814560  	0.203264 
792.743376  	0.200946 
794.672192  	0.199074 
796.601008  	0.198135 
798.529824  	0.196643 
800.458640  	0.193926 
802.387456  	0.191051 
804.316272  	0.189747 
806.245088  	0.189015 
808.173904  	0.188523 
810.102720  	0.188516 
812.031536  	0.188640 
813.960352  	0.188603 
815.889168  	0.189046 
817.817984  	0.189533 
819.746800  	0.189298 
821.675616  	0.188792 
823.604432  	0.188437 
825.533248  	0.187807 
827.462064  	0.186773 
829.390880  	0.185788 
831.319696  	0.184758 
833.248512  	0.183127 
835.177328  	0.181418 
837.106144  	0.179371 
839.034960  	0.176546 
840.963776  	0.173769 
842.892592  	0.171334 
844.821408  	0.168639 
846.750224  	0.165859 
848.679040  	0.163620 
850.607856  	0.161853 
852.536672  	0.159929 
854.465488  	0.158016 
856.394304  	0.156500 
858.323120  	0.154919 
860.251936  	0.153405 
862.180752  	0.151716 
864.109568  	0.149960 
866.038384  	0.148329 
867.967200  	0.146640 
869.896016  	0.145401 
871.824832  	0.144565 
873.753648  	0.143919 
875.682464  	0.143946 
877.611280  	0.144138 
879.540096  	0.144643 
881.468912  	0.145515 
883.397728  	0.146081 
885.326544  	0.146454 
887.255360  	0.146528 
889.184176  	0.146057 
891.112992  	0.144718 
893.041808  	0.143146 
894.970624  	0.141218 
896.899440  	0.138613 
898.828256  	0.135243 
900.757072  	0.131961 
902.685888  	0.129224 
904.614704  	0.127313 
906.543520  	0.126868 
908.472336  	0.127846 
910.401152  	0.129809 
912.329968  	0.132710 
914.258784  	0.136069 
916.187600  	0.139024 
918.116416  	0.140954 
920.045232  	0.141857 
921.974048  	0.141652 
923.902864  	0.140943 
925.831680  	0.139862 
927.760496  	0.138904 
929.689312  	0.138245 
931.618128  	0.138264 
933.546944  	0.138759 
935.475760  	0.139216 
937.404576  	0.139700 
939.333392  	0.140693 
941.262208  	0.142251 
943.191024  	0.144625 
945.119840  	0.148241 
947.048656  	0.152961 
948.977472  	0.158779 
950.906288  	0.165311 
952.835104  	0.172504 
954.763920  	0.179813 
956.692736  	0.186548 
958.621552  	0.192330 
960.550368  	0.196231 
962.479184  	0.197972 
964.408000  	0.196832 
966.336816  	0.193244 
968.265632  	0.187228 
970.194448  	0.179614 
972.123264  	0.170654 
974.052080  	0.161221 
975.980896  	0.151745 
977.909712  	0.142881 
979.838528  	0.135490 
981.767344  	0.129679 
983.696160  	0.125731 
985.624976  	0.123961 
987.553792  	0.124446 
989.482608  	0.126921 
991.411424  	0.131446 
993.340240  	0.137548 
995.269056  	0.144781 
997.197872  	0.152557 
999.126688  	0.159974 
1001.055504  	0.167233 
1002.984320  	0.174261 
1004.913136  	0.180848 
1006.841952  	0.186521 
1008.770768  	0.191375 
1010.699584  	0.194923 
1012.628400  	0.197460 
1014.557216  	0.198826 
1016.486032  	0.199544 
1018.414848  	0.200060 
1020.343664  	0.200649 
1022.272480  	0.200747 
1024.201296  	0.200684 
1026.130112  	0.200076 
1028.058928  	0.200533 
1029.987744  	0.202437 
1031.916560  	0.204589 
1033.845376  	0.207018 
1035.774192  	0.209613 
1037.703008  	0.212946 
1039.631824  	0.218581 
1041.560640  	0.225730 
1043.489456  	0.234701 
1045.418272  	0.245651 
1047.347088  	0.258928 
1049.275904  	0.272857 
1051.204720  	0.286241 
1053.133536  	0.296944 
1055.062352  	0.305115 
1056.991168  	0.309480 
1058.919984  	0.312059 
1060.848800  	0.312382 
1062.777616  	0.310323 
1064.706432  	0.305077 
1066.635248  	0.299646 
1068.564064  	0.294525 
1070.492880  	0.288602 
1072.421696  	0.281258 
1074.350512  	0.274876 
1076.279328  	0.269681 
1078.208144  	0.265512 
1080.136960  	0.262531 
1082.065776  	0.259858 
1083.994592  	0.256559 
1085.923408  	0.253127 
1087.852224  	0.248818 
1089.781040  	0.244296 
1091.709856  	0.238421 
1093.638672  	0.230882 
1095.567488  	0.221721 
1097.496304  	0.212421 
1099.425120  	0.202555 
1101.353936  	0.192833 
1103.282752  	0.183119 
1105.211568  	0.173286 
1107.140384  	0.163527 
1109.069200  	0.154322 
1110.998016  	0.145832 
1112.926832  	0.137795 
1114.855648  	0.130326 
1116.784464  	0.123335 
1118.713280  	0.116696 
1120.642096  	0.110521 
1122.570912  	0.104592 
1124.499728  	0.099013 
1126.428544  	0.093875 
1128.357360  	0.088929 
1130.286176  	0.084482 
1132.214992  	0.080661 
1134.143808  	0.077402 
1136.072624  	0.074399 
1138.001440  	0.071446 
1139.930256  	0.068653 
1141.859072  	0.066155 
1143.787888  	0.063752 
1145.716704  	0.061971 
1147.645520  	0.060638 
1149.574336  	0.059737 
1151.503152  	0.059040 
1153.431968  	0.058856 
1155.360784  	0.059193 
1157.289600  	0.059723 
1159.218416  	0.060342 
1161.147232  	0.061597 
1163.076048  	0.063004 
1165.004864  	0.064596 
1166.933680  	0.066012 
1168.862496  	0.068019 
1170.791312  	0.070391 
1172.720128  	0.072666 
1174.648944  	0.074955 
1176.577760  	0.077612 
1178.506576  	0.080417 
1180.435392  	0.083187 
1182.364208  	0.085782 
1184.293024  	0.088685 
1186.221840  	0.091891 
1188.150656  	0.095263 
1190.079472  	0.099089 
1192.008288  	0.103557 
1193.937104  	0.108600 
1195.865920  	0.114389 
1197.794736  	0.120613 
1199.723552  	0.127318 
1201.652368  	0.134200 
1203.581184  	0.141026 
1205.510000  	0.147728 
1207.438816  	0.154256 
1209.367632  	0.160518 
1211.296448  	0.166300 
1213.225264  	0.171251 
1215.154080  	0.175100 
1217.082896  	0.178285 
1219.011712  	0.180687 
1220.940528  	0.182854 
1222.869344  	0.184352 
1224.798160  	0.185106 
1226.726976  	0.185132 
1228.655792  	0.184715 
1230.584608  	0.183529 
1232.513424  	0.181837 
1234.442240  	0.179026 
1236.371056  	0.175599 
1238.299872  	0.171535 
1240.228688  	0.166270 
1242.157504  	0.160468 
1244.086320  	0.154803 
1246.015136  	0.148203 
1247.943952  	0.141352 
1249.872768  	0.134746 
1251.801584  	0.128546 
1253.730400  	0.122400 
1255.659216  	0.116480 
1257.588032  	0.110812 
1259.516848  	0.105500 
1261.445664  	0.100683 
1263.374480  	0.096332 
1265.303296  	0.092414 
1267.232112  	0.089384 
1269.160928  	0.087242 
1271.089744  	0.085905 
1273.018560  	0.085490 
1274.947376  	0.085619 
1276.876192  	0.085721 
1278.805008  	0.085206 
1280.733824  	0.083650 
1282.662640  	0.080909 
1284.591456  	0.077343 
1286.520272  	0.073750 
1288.449088  	0.070829 
1290.377904  	0.068502 
1292.306720  	0.066638 
1294.235536  	0.064489 
1296.164352  	0.061607 
1298.093168  	0.058135 
1300.021984  	0.054769 
1301.950800  	0.051782 
1303.879616  	0.049316 
1305.808432  	0.047278 
1307.737248  	0.045859 
1309.666064  	0.044639 
1311.594880  	0.044000 
1313.523696  	0.043773 
1315.452512  	0.043835 
1317.381328  	0.044188 
1319.310144  	0.044821 
1321.238960  	0.045674 
1323.167776  	0.046571 
1325.096592  	0.047086 
1327.025408  	0.047205 
1328.954224  	0.046750 
1330.883040  	0.045955 
1332.811856  	0.044937 
1334.740672  	0.044102 
1336.669488  	0.043152 
1338.598304  	0.042457 
1340.527120  	0.041863 
1342.455936  	0.041491 
1344.384752  	0.041542 
1346.313568  	0.042158 
1348.242384  	0.043288 
1350.171200  	0.045041 
1352.100016  	0.047012 
1354.028832  	0.048920 
1355.957648  	0.050942 
1357.886464  	0.052916 
1359.815280  	0.054519 
1361.744096  	0.056025 
1363.672912  	0.057492 
1365.601728  	0.058423 
1367.530544  	0.058954 
1369.459360  	0.059170 
1371.388176  	0.058615 
1373.316992  	0.057256 
1375.245808  	0.055516 
1377.174624  	0.053892 
1379.103440  	0.051939 
1381.032256  	0.050241 
1382.961072  	0.048901 
1384.889888  	0.048074 
1386.818704  	0.047168 
1388.747520  	0.046184 
1390.676336  	0.044870 
1392.605152  	0.042982 
1394.533968  	0.041729 
1396.462784  	0.042715 
1398.391600  	0.043312 
1400.320416  	0.043894 
1402.249232  	0.044521 
1404.178048  	0.045597 
1406.106864  	0.047006 
1408.035680  	0.048763 
1409.964496  	0.050627 
1411.893312  	0.052837 
1413.822128  	0.054807 
1415.750944  	0.056536 
1417.679760  	0.057088 
1419.608576  	0.056946 
1421.537392  	0.056810 
1423.466208  	0.056179 
1425.395024  	0.054949 
1427.323840  	0.053488 
1429.252656  	0.051538 
1431.181472  	0.050308 
1433.110288  	0.049956 
1435.039104  	0.049807 
1436.967920  	0.049780 
1438.896736  	0.050605 
1440.825552  	0.051189 
1442.754368  	0.051633 
1444.683184  	0.051652 
1446.612000  	0.051492 
1448.540816  	0.051435 
1450.469632  	0.051765 
1452.398448  	0.051818 
1454.327264  	0.051697 
1456.256080  	0.050947 
1458.184896  	0.051172 
1460.113712  	0.052435 
1462.042528  	0.053201 
1463.971344  	0.053169 
1465.900160  	0.054879 
1467.828976  	0.057330 
1469.757792  	0.059524 
1471.686608  	0.061642 
1473.615424  	0.065985 
1475.544240  	0.069595 
1477.473056  	0.072235 
1479.401872  	0.073278 
1481.330688  	0.073480 
1483.259504  	0.073207 
1485.188320  	0.072246 
1487.117136  	0.069949 
1489.045952  	0.067389 
1490.974768  	0.064510 
1492.903584  	0.062130 
1494.832400  	0.058933 
1496.761216  	0.054956 
1498.690032  	0.052017 
1500.618848  	0.050404 
1502.547664  	0.048843 
1504.476480  	0.046394 
1506.405296  	0.043173 
1508.334112  	0.043811 
1510.262928  	0.044187 
1512.191744  	0.043556 
1514.120560  	0.042743 
1516.049376  	0.042197 
1517.978192  	0.042395 
1519.907008  	0.042974 
1521.835824  	0.044497 
1523.764640  	0.047813 
1525.693456  	0.050745 
1527.622272  	0.053198 
1529.551088  	0.054896 
1531.479904  	0.055462 
1533.408720  	0.054606 
1535.337536  	0.054210 
1537.266352  	0.052296 
1539.195168  	0.047653 
1541.123984  	0.045067 
1543.052800  	0.046015 
1544.981616  	0.045982 
1546.910432  	0.045602 
1548.839248  	0.045028 
1550.768064  	0.044992 
1552.696880  	0.044764 
1554.625696  	0.044835 
1556.554512  	0.044141 
1558.483328  	0.042845 
1560.412144  	0.047602 
1562.340960  	0.051640 
1564.269776  	0.053871 
1566.198592  	0.057238 
1568.127408  	0.059673 
1570.056224  	0.063714 
1571.985040  	0.068112 
1573.913856  	0.070022 
1575.842672  	0.070309 
1577.771488  	0.072588 
1579.700304  	0.073625 
1581.629120  	0.073841 
1583.557936  	0.074186 
1585.486752  	0.075759 
1587.415568  	0.078378 
1589.344384  	0.082383 
1591.273200  	0.086875 
1593.202016  	0.092010 
1595.130832  	0.096948 
1597.059648  	0.101846 
1598.988464  	0.105425 
1600.917280  	0.108141 
1602.846096  	0.109563 
1604.774912  	0.110352 
1606.703728  	0.109873 
1608.632544  	0.109443 
1610.561360  	0.108927 
1612.490176  	0.109001 
1614.418992  	0.108517 
1616.347808  	0.109268 
1618.276624  	0.113191 
1620.205440  	0.117480 
1622.134256  	0.120941 
1624.063072  	0.127624 
1625.991888  	0.133987 
1627.920704  	0.140610 
1629.849520  	0.148194 
1631.778336  	0.154706 
1633.707152  	0.158630 
1635.635968  	0.163883 
1637.564784  	0.171177 
1639.493600  	0.175812 
1641.422416  	0.178883 
1643.351232  	0.180670 
1645.280048  	0.180146 
1647.208864  	0.180336 
1649.137680  	0.181380 
1651.066496  	0.179911 
1652.995312  	0.175748 
1654.924128  	0.177360 
1656.852944  	0.177400 
1658.781760  	0.176205 
1660.710576  	0.174208 
1662.639392  	0.172175 
1664.568208  	0.171289 
1666.497024  	0.170132 
1668.425840  	0.167591 
1670.354656  	0.166017 
1672.283472  	0.165792 
1674.212288  	0.165180 
1676.141104  	0.165265 
1678.069920  	0.166254 
1679.998736  	0.166477 
1681.927552  	0.165768 
1683.856368  	0.164025 
1685.785184  	0.165717 
1687.714000  	0.165809 
1689.642816  	0.164424 
1691.571632  	0.162399 
1693.500448  	0.159610 
1695.429264  	0.154823 
1697.358080  	0.150961 
1699.286896  	0.147051 
1701.215712  	0.141942 
1703.144528  	0.138882 
1705.073344  	0.133917 
1707.002160  	0.128751 
1708.930976  	0.124449 
1710.859792  	0.119321 
1712.788608  	0.113578 
1714.717424  	0.107125 
1716.646240  	0.099769 
1718.575056  	0.092969 
1720.503872  	0.088274 
1722.432688  	0.083396 
1724.361504  	0.077182 
1726.290320  	0.071670 
1728.219136  	0.066197 
1730.147952  	0.060857 
1732.076768  	0.055651 
1734.005584  	0.049558 
1735.934400  	0.044577 
1737.863216  	0.041552 
1739.792032  	0.036707 
1741.720848  	0.033499 
1743.649664  	0.030506 
1745.578480  	0.027597 
1747.507296  	0.024395 
1749.436112  	0.022417 
1751.364928  	0.021102 
1753.293744  	0.020282 
1755.222560  	0.018910 
1757.151376  	0.017869 
1759.080192  	0.016991 
1761.009008  	0.016389 
1762.937824  	0.015700 
1764.866640  	0.015535 
1766.795456  	0.014858 
1768.724272  	0.014312 
1770.653088  	0.012783 
1772.581904  	0.012167 
1774.510720  	0.012960 
1776.439536  	0.013502 
1778.368352  	0.013207 
1780.297168  	0.013099 
1782.225984  	0.012748 
1784.154800  	0.012732 
1786.083616  	0.012605 
1788.012432  	0.012436 
1789.941248  	0.011687 
1791.870064  	0.011141 
1793.798880  	0.011205 
1795.727696  	0.011996 
1797.656512  	0.011627 
1799.585328  	0.011232 
1801.514144  	0.011135 
1803.442960  	0.011150 
1805.371776  	0.010866 
1807.300592  	0.010851 
1809.229408  	0.010324 
1811.158224  	0.010360 
1813.087040  	0.010310 
1815.015856  	0.010300 
1816.944672  	0.010163 
1818.873488  	0.010455 
1820.802304  	0.010462 
1822.731120  	0.010449 
1824.659936  	0.010034 
1826.588752  	0.010205 
1828.517568  	0.009819 
1830.446384  	0.010121 
1832.375200  	0.010406 
1834.304016  	0.010252 
1836.232832  	0.009957 
1838.161648  	0.010476 
1840.090464  	0.010425 
1842.019280  	0.010035 
1843.948096  	0.009303 
1845.876912  	0.009801 
1847.805728  	0.010162 
1849.734544  	0.010431 
1851.663360  	0.010154 
1853.592176  	0.010291 
1855.520992  	0.010221 
1857.449808  	0.010411 
1859.378624  	0.010269 
1861.307440  	0.010203 
1863.236256  	0.009841 
1865.165072  	0.009824 
1867.093888  	0.009609 
1869.022704  	0.010040 
1870.951520  	0.010004 
1872.880336  	0.010237 
1874.809152  	0.010012 
1876.737968  	0.009903 
1878.666784  	0.009664 
1880.595600  	0.010219 
1882.524416  	0.010319 
1884.453232  	0.010186 
1886.382048  	0.009844 
1888.310864  	0.009904 
1890.239680  	0.010024 
1892.168496  	0.010321 
1894.097312  	0.009999 
1896.026128  	0.010229 
1897.954944  	0.010100 
1899.883760  	0.010199 
1901.812576  	0.009930 
1903.741392  	0.010028 
1905.670208  	0.009518 
1907.599024  	0.009490 
1909.527840  	0.009283 
1911.456656  	0.009787 
1913.385472  	0.009953 
1915.314288  	0.010056 
1917.243104  	0.009750 
1919.171920  	0.009884 
1921.100736  	0.010133 
1923.029552  	0.010815 
1924.958368  	0.010086 
1926.887184  	0.009811 
1928.816000  	0.009511 
1930.744816  	0.009475 
1932.673632  	0.008816 
1934.602448  	0.009412 
1936.531264  	0.009907 
1938.460080  	0.009884 
1940.388896  	0.009711 
1942.317712  	0.009967 
1944.246528  	0.009671 
1946.175344  	0.009779 
1948.104160  	0.009176 
1950.032976  	0.009517 
1951.961792  	0.010006 
1953.890608  	0.010641 
1955.819424  	0.009616 
1957.748240  	0.010017 
1959.677056  	0.010280 
1961.605872  	0.010008 
1963.534688  	0.009683 
1965.463504  	0.010855 
1967.392320  	0.011021 
1969.321136  	0.010595 
1971.249952  	0.010063 
1973.178768  	0.011182 
1975.107584  	0.009536 
1977.036400  	0.009205 
1978.965216  	0.011490 
1980.894032  	0.013052 
1982.822848  	0.011112 
1984.751664  	0.010241 
1986.680480  	0.010329 
1988.609296  	0.011012 
1990.538112  	0.010822 
1992.466928  	0.010814 
1994.395744  	0.010477 
1996.324560  	0.010985 
1998.253376  	0.010197 
2000.182192  	0.010200 
2002.111008  	0.010663 
2004.039824  	0.010760 
2005.968640  	0.009987 
2007.897456  	0.011294 
2009.826272  	0.010661 
2011.755088  	0.009437 
2013.683904  	0.010710 
2015.612720  	0.012512 
2017.541536  	0.010897 
2019.470352  	0.010236 
2021.399168  	0.009405 
2023.327984  	0.009645 
2025.256800  	0.008869 
2027.185616  	0.008952 
2029.114432  	0.009299 
2031.043248  	0.010515 
2032.972064  	0.010429 
2034.900880  	0.011609 
2036.829696  	0.011912 
2038.758512  	0.011548 
2040.687328  	0.011061 
2042.616144  	0.010202 
2044.544960  	0.009362 
2046.473776  	0.010444 
2048.402592  	0.010653 
2050.331408  	0.011506 
2052.260224  	0.010970 
2054.189040  	0.010955 
2056.117856  	0.010437 
2058.046672  	0.010281 
2059.975488  	0.009656 
2061.904304  	0.009968 
2063.833120  	0.010707 
2065.761936  	0.010786 
2067.690752  	0.010088 
2069.619568  	0.009724 
2071.548384  	0.008837 
2073.477200  	0.009292 
2075.406016  	0.010239 
2077.334832  	0.010830 
2079.263648  	0.010305 
2081.192464  	0.010455 
2083.121280  	0.010818 
2085.050096  	0.010704 
2086.978912  	0.010233 
2088.907728  	0.010366 
2090.836544  	0.009961 
2092.765360  	0.009703 
2094.694176  	0.009529 
2096.622992  	0.009410 
2098.551808  	0.009419 
2100.480624  	0.010059 
2102.409440  	0.009561 
2104.338256  	0.009607 
2106.267072  	0.009813 
2108.195888  	0.010058 
2110.124704  	0.010403 
2112.053520  	0.010649 
2113.982336  	0.010369 
2115.911152  	0.010378 
2117.839968  	0.009854 
2119.768784  	0.009531 
2121.697600  	0.009533 
2123.626416  	0.009401 
2125.555232  	0.009015 
2127.484048  	0.009541 
2129.412864  	0.009177 
2131.341680  	0.008559 
2133.270496  	0.008754 
2135.199312  	0.009363 
2137.128128  	0.009962 
2139.056944  	0.010227 
2140.985760  	0.009408 
2142.914576  	0.010124 
2144.843392  	0.009582 
2146.772208  	0.009573 
2148.701024  	0.010256 
2150.629840  	0.010318 
2152.558656  	0.008202 
2154.487472  	0.007148 
2156.416288  	0.006954 
2158.345104  	0.009188 
2160.273920  	0.012055 
2162.202736  	0.012552 
2164.131552  	0.011586 
2166.060368  	0.013135 
2167.989184  	0.011881 
2169.918000  	0.010630 
2171.846816  	0.010278 
2173.775632  	0.010831 
2175.704448  	0.010884 
2177.633264  	0.011339 
2179.562080  	0.011067 
2181.490896  	0.011166 
2183.419712  	0.010942 
2185.348528  	0.011155 
2187.277344  	0.011199 
2189.206160  	0.011458 
2191.134976  	0.012278 
2193.063792  	0.013263 
2194.992608  	0.013006 
2196.921424  	0.011983 
2198.850240  	0.011755 
2200.779056  	0.011421 
2202.707872  	0.011131 
2204.636688  	0.011638 
2206.565504  	0.011429 
2208.494320  	0.012038 
2210.423136  	0.011089 
2212.351952  	0.010429 
2214.280768  	0.010927 
2216.209584  	0.011214 
2218.138400  	0.010834 
2220.067216  	0.010755 
2221.996032  	0.010830 
2223.924848  	0.010824 
2225.853664  	0.010921 
2227.782480  	0.011312 
2229.711296  	0.011457 
2231.640112  	0.011372 
2233.568928  	0.010915 
2235.497744  	0.010969 
2237.426560  	0.010741 
2239.355376  	0.010915 
2241.284192  	0.010591 
2243.213008  	0.010587 
2245.141824  	0.010728 
2247.070640  	0.010440 
2248.999456  	0.010262 
2250.928272  	0.010325 
2252.857088  	0.010141 
2254.785904  	0.009926 
2256.714720  	0.010628 
2258.643536  	0.011445 
2260.572352  	0.010981 
2262.501168  	0.010819 
2264.429984  	0.011029 
2266.358800  	0.011413 
2268.287616  	0.011328 
2270.216432  	0.011319 
2272.145248  	0.011269 
2274.074064  	0.011239 
2276.002880  	0.010745 
2277.931696  	0.011176 
2279.860512  	0.011646 
2281.789328  	0.011619 
2283.718144  	0.011685 
2285.646960  	0.012037 
2287.575776  	0.012252 
2289.504592  	0.011974 
2291.433408  	0.011489 
2293.362224  	0.011381 
2295.291040  	0.011541 
2297.219856  	0.012103 
2299.148672  	0.012224 
2301.077488  	0.012197 
2303.006304  	0.012064 
2304.935120  	0.011884 
2306.863936  	0.011891 
2308.792752  	0.011960 
2310.721568  	0.011925 
2312.650384  	0.011686 
2314.579200  	0.011372 
2316.508016  	0.011265 
2318.436832  	0.010852 
2320.365648  	0.010602 
2322.294464  	0.010410 
2324.223280  	0.009508 
2326.152096  	0.007956 
2328.080912  	0.006977 
2330.009728  	0.006357 
2331.938544  	0.005971 
2333.867360  	0.005057 
2335.796176  	0.004311 
2337.724992  	0.003863 
2339.653808  	0.003744 
2341.582624  	0.003777 
2343.511440  	0.004911 
2345.440256  	0.006449 
2347.369072  	0.008169 
2349.297888  	0.008544 
2351.226704  	0.007262 
2353.155520  	0.005653 
2355.084336  	0.003915 
2357.013152  	0.002325 
2358.941968  	0.001247 
2360.870784  	0.000639 
2362.799600  	0.001260 
2364.728416  	0.001908 
2366.657232  	0.002940 
2368.586048  	0.004073 
2370.514864  	0.005803 
2372.443680  	0.007445 
2374.372496  	0.009102 
2376.301312  	0.010433 
2378.230128  	0.011576 
2380.158944  	0.012028 
2382.087760  	0.012070 
2384.016576  	0.012242 
2385.945392  	0.012418 
2387.874208  	0.012155 
2389.803024  	0.011995 
2391.731840  	0.011820 
2393.660656  	0.011917 
2395.589472  	0.012060 
2397.518288  	0.012139 
2399.447104  	0.012044 
2401.375920  	0.011842 
2403.304736  	0.011904 
2405.233552  	0.012082 
2407.162368  	0.012239 
2409.091184  	0.012148 
2411.020000  	0.012103 
2412.948816  	0.012424 
2414.877632  	0.012516 
2416.806448  	0.012635 
2418.735264  	0.012845 
2420.664080  	0.012777 
2422.592896  	0.012488 
2424.521712  	0.012600 
2426.450528  	0.012757 
2428.379344  	0.012653 
2430.308160  	0.012755 
2432.236976  	0.013038 
2434.165792  	0.013185 
2436.094608  	0.013455 
2438.023424  	0.013649 
2439.952240  	0.013830 
2441.881056  	0.013813 
2443.809872  	0.013707 
2445.738688  	0.013636 
2447.667504  	0.013808 
2449.596320  	0.013795 
2451.525136  	0.013881 
2453.453952  	0.013889 
2455.382768  	0.014150 
2457.311584  	0.014382 
2459.240400  	0.014362 
2461.169216  	0.014236 
2463.098032  	0.014086 
2465.026848  	0.014086 
2466.955664  	0.014182 
2468.884480  	0.014080 
2470.813296  	0.014112 
2472.742112  	0.014060 
2474.670928  	0.014039 
2476.599744  	0.014145 
2478.528560  	0.014273 
2480.457376  	0.014620 
2482.386192  	0.014860 
2484.315008  	0.014825 
2486.243824  	0.015029 
2488.172640  	0.015008 
2490.101456  	0.015122 
2492.030272  	0.015435 
2493.959088  	0.015351 
2495.887904  	0.015148 
2497.816720  	0.015339 
2499.745536  	0.015416 
2501.674352  	0.015386 
2503.603168  	0.015317 
2505.531984  	0.015431 
2507.460800  	0.015590 
2509.389616  	0.015568 
2511.318432  	0.015331 
2513.247248  	0.015580 
2515.176064  	0.015757 
2517.104880  	0.015988 
2519.033696  	0.016239 
2520.962512  	0.016381 
2522.891328  	0.016567 
2524.820144  	0.016690 
2526.748960  	0.016544 
2528.677776  	0.016525 
2530.606592  	0.016568 
2532.535408  	0.016610 
2534.464224  	0.016812 
2536.393040  	0.016953 
2538.321856  	0.016944 
2540.250672  	0.016988 
2542.179488  	0.017009 
2544.108304  	0.017193 
2546.037120  	0.017136 
2547.965936  	0.017458 
2549.894752  	0.017686 
2551.823568  	0.017582 
2553.752384  	0.017562 
2555.681200  	0.017693 
2557.610016  	0.017790 
2559.538832  	0.017731 
2561.467648  	0.017719 
2563.396464  	0.017985 
2565.325280  	0.018332 
2567.254096  	0.018315 
2569.182912  	0.018128 
2571.111728  	0.018192 
2573.040544  	0.018005 
2574.969360  	0.017937 
2576.898176  	0.018284 
2578.826992  	0.018710 
2580.755808  	0.018645 
2582.684624  	0.018476 
2584.613440  	0.018434 
2586.542256  	0.018722 
2588.471072  	0.018857 
2590.399888  	0.018846 
2592.328704  	0.019006 
2594.257520  	0.019280 
2596.186336  	0.019520 
2598.115152  	0.019627 
2600.043968  	0.019535 
2601.972784  	0.019512 
2603.901600  	0.019475 
2605.830416  	0.019561 
2607.759232  	0.019599 
2609.688048  	0.019831 
2611.616864  	0.020017 
2613.545680  	0.020018 
2615.474496  	0.020028 
2617.403312  	0.020169 
2619.332128  	0.020358 
2621.260944  	0.020481 
2623.189760  	0.020455 
2625.118576  	0.020542 
2627.047392  	0.020724 
2628.976208  	0.020930 
2630.905024  	0.020952 
2632.833840  	0.021146 
2634.762656  	0.021368 
2636.691472  	0.021394 
2638.620288  	0.021356 
2640.549104  	0.021446 
2642.477920  	0.021588 
2644.406736  	0.021717 
2646.335552  	0.021878 
2648.264368  	0.022064 
2650.193184  	0.022244 
2652.122000  	0.022379 
2654.050816  	0.022502 
2655.979632  	0.022462 
2657.908448  	0.022550 
2659.837264  	0.022796 
2661.766080  	0.022885 
2663.694896  	0.022944 
2665.623712  	0.022900 
2667.552528  	0.022837 
2669.481344  	0.022992 
2671.410160  	0.023237 
2673.338976  	0.023424 
2675.267792  	0.023555 
2677.196608  	0.023633 
2679.125424  	0.023788 
2681.054240  	0.023886 
2682.983056  	0.023976 
2684.911872  	0.024128 
2686.840688  	0.024253 
2688.769504  	0.024368 
2690.698320  	0.024378 
2692.627136  	0.024489 
2694.555952  	0.024596 
2696.484768  	0.024539 
2698.413584  	0.024670 
2700.342400  	0.024823 
2702.271216  	0.024994 
2704.200032  	0.025237 
2706.128848  	0.025403 
2708.057664  	0.025552 
2709.986480  	0.025651 
2711.915296  	0.025687 
2713.844112  	0.025751 
2715.772928  	0.025945 
2717.701744  	0.026180 
2719.630560  	0.026223 
2721.559376  	0.026300 
2723.488192  	0.026392 
2725.417008  	0.026546 
2727.345824  	0.026752 
2729.274640  	0.026881 
2731.203456  	0.026954 
2733.132272  	0.027086 
2735.061088  	0.027177 
2736.989904  	0.027236 
2738.918720  	0.027316 
2740.847536  	0.027279 
2742.776352  	0.027388 
2744.705168  	0.027595 
2746.633984  	0.027631 
2748.562800  	0.027776 
2750.491616  	0.027901 
2752.420432  	0.027958 
2754.349248  	0.028021 
2756.278064  	0.028087 
2758.206880  	0.028132 
2760.135696  	0.028299 
2762.064512  	0.028293 
2763.993328  	0.028283 
2765.922144  	0.028432 
2767.850960  	0.028575 
2769.779776  	0.028615 
2771.708592  	0.028719 
2773.637408  	0.028760 
2775.566224  	0.028828 
2777.495040  	0.028839 
2779.423856  	0.028864 
2781.352672  	0.029050 
2783.281488  	0.029268 
2785.210304  	0.029329 
2787.139120  	0.029435 
2789.067936  	0.029477 
2790.996752  	0.029551 
2792.925568  	0.029708 
2794.854384  	0.029839 
2796.783200  	0.029909 
2798.712016  	0.029868 
2800.640832  	0.029920 
2802.569648  	0.030156 
2804.498464  	0.030281 
2806.427280  	0.030255 
2808.356096  	0.030383 
2810.284912  	0.030542 
2812.213728  	0.030574 
2814.142544  	0.030674 
2816.071360  	0.030820 
2818.000176  	0.030842 
2819.928992  	0.030809 
2821.857808  	0.030829 
2823.786624  	0.030839 
2825.715440  	0.030794 
2827.644256  	0.030677 
2829.573072  	0.030709 
2831.501888  	0.030700 
2833.430704  	0.030635 
2835.359520  	0.030566 
2837.288336  	0.030458 
2839.217152  	0.030364 
2841.145968  	0.030130 
2843.074784  	0.030063 
2845.003600  	0.030076 
2846.932416  	0.030013 
2848.861232  	0.029973 
2850.790048  	0.029845 
2852.718864  	0.029819 
2854.647680  	0.029859 
2856.576496  	0.029927 
2858.505312  	0.029782 
2860.434128  	0.029597 
2862.362944  	0.029425 
2864.291760  	0.029192 
2866.220576  	0.029012 
2868.149392  	0.029177 
2870.078208  	0.029503 
2872.007024  	0.029738 
2873.935840  	0.029957 
2875.864656  	0.030250 
2877.793472  	0.030569 
2879.722288  	0.030753 
2881.651104  	0.030776 
2883.579920  	0.030824 
2885.508736  	0.031097 
2887.437552  	0.031353 
2889.366368  	0.031360 
2891.295184  	0.031331 
2893.224000  	0.031254 
2895.152816  	0.031377 
2897.081632  	0.031307 
2899.010448  	0.030623 
2900.939264  	0.030099 
2902.868080  	0.030647 
2904.796896  	0.031245 
2906.725712  	0.031488 
2908.654528  	0.031647 
2910.583344  	0.031864 
2912.512160  	0.032498 
2914.440976  	0.033252 
2916.369792  	0.033661 
2918.298608  	0.034139 
2920.227424  	0.034709 
2922.156240  	0.035398 
2924.085056  	0.036103 
2926.013872  	0.036793 
2927.942688  	0.037489 
2929.871504  	0.038153 
2931.800320  	0.038839 
2933.729136  	0.039450 
2935.657952  	0.039809 
2937.586768  	0.040241 
2939.515584  	0.040463 
2941.444400  	0.040587 
2943.373216  	0.040758 
2945.302032  	0.040770 
2947.230848  	0.040692 
2949.159664  	0.040554 
2951.088480  	0.040256 
2953.017296  	0.040042 
2954.946112  	0.039819 
2956.874928  	0.039433 
2958.803744  	0.038887 
2960.732560  	0.038428 
2962.661376  	0.038106 
2964.590192  	0.037631 
2966.519008  	0.037116 
2968.447824  	0.036821 
2970.376640  	0.036434 
2972.305456  	0.035934 
2974.234272  	0.035631 
2976.163088  	0.035537 
2978.091904  	0.035475 
2980.020720  	0.035466 
2981.949536  	0.035381 
2983.878352  	0.035050 
2985.807168  	0.034700 
2987.735984  	0.034386 
2989.664800  	0.034492 
2991.593616  	0.035723 
2993.522432  	0.036428 
2995.451248  	0.036636 
2997.380064  	0.037070 
2999.308880  	0.037539 
3001.237696  	0.037983 
3003.166512  	0.038442 
3005.095328  	0.038959 
3007.024144  	0.039525 
3008.952960  	0.040184 
3010.881776  	0.040893 
3012.810592  	0.041432 
3014.739408  	0.041960 
3016.668224  	0.042606 
3018.597040  	0.043062 
3020.525856  	0.043368 
3022.454672  	0.043758 
3024.383488  	0.044260 
3026.312304  	0.044658 
3028.241120  	0.044963 
3030.169936  	0.045285 
3032.098752  	0.045688 
3034.027568  	0.045805 
3035.956384  	0.045998 
3037.885200  	0.046475 
3039.814016  	0.046925 
3041.742832  	0.047362 
3043.671648  	0.047665 
3045.600464  	0.047817 
3047.529280  	0.048083 
3049.458096  	0.048392 
3051.386912  	0.048492 
3053.315728  	0.048730 
3055.244544  	0.049093 
3057.173360  	0.049620 
3059.102176  	0.050125 
3061.030992  	0.050513 
3062.959808  	0.050813 
3064.888624  	0.051172 
3066.817440  	0.051610 
3068.746256  	0.051860 
3070.675072  	0.052003 
3072.603888  	0.052406 
3074.532704  	0.052819 
3076.461520  	0.053223 
3078.390336  	0.053559 
3080.319152  	0.053929 
3082.247968  	0.054415 
3084.176784  	0.054835 
3086.105600  	0.054975 
3088.034416  	0.055266 
3089.963232  	0.055766 
3091.892048  	0.056089 
3093.820864  	0.056316 
3095.749680  	0.056569 
3097.678496  	0.056576 
3099.607312  	0.056912 
3101.536128  	0.057211 
3103.464944  	0.057505 
3105.393760  	0.057898 
3107.322576  	0.058263 
3109.251392  	0.058559 
3111.180208  	0.058855 
3113.109024  	0.059035 
3115.037840  	0.059143 
3116.966656  	0.059403 
3118.895472  	0.059779 
3120.824288  	0.059996 
3122.753104  	0.060198 
3124.681920  	0.060405 
3126.610736  	0.060484 
3128.539552  	0.060650 
3130.468368  	0.060762 
3132.397184  	0.061006 
3134.326000  	0.061328 
3136.254816  	0.061552 
3138.183632  	0.061686 
3140.112448  	0.061800 
3142.041264  	0.061892 
3143.970080  	0.062122 
3145.898896  	0.062349 
3147.827712  	0.062559 
3149.756528  	0.062860 
3151.685344  	0.063193 
3153.614160  	0.063551 
3155.542976  	0.063707 
3157.471792  	0.063866 
3159.400608  	0.064337 
3161.329424  	0.064791 
3163.258240  	0.065033 
3165.187056  	0.065121 
3167.115872  	0.065279 
3169.044688  	0.065410 
3170.973504  	0.065497 
3172.902320  	0.065640 
3174.831136  	0.065851 
3176.759952  	0.065982 
3178.688768  	0.066344 
3180.617584  	0.066471 
3182.546400  	0.066321 
3184.475216  	0.066419 
3186.404032  	0.066476 
3188.332848  	0.066474 
3190.261664  	0.066772 
3192.190480  	0.066963 
3194.119296  	0.066649 
3196.048112  	0.066507 
3197.976928  	0.066728 
3199.905744  	0.066858 
3201.834560  	0.066798 
3203.763376  	0.066786 
3205.692192  	0.066720 
3207.621008  	0.066528 
3209.549824  	0.066200 
3211.478640  	0.066137 
3213.407456  	0.066129 
3215.336272  	0.066164 
3217.265088  	0.066019 
3219.193904  	0.065642 
3221.122720  	0.065253 
3223.051536  	0.065023 
3224.980352  	0.064779 
3226.909168  	0.064587 
3228.837984  	0.064469 
3230.766800  	0.064448 
3232.695616  	0.064459 
3234.624432  	0.064513 
3236.553248  	0.064428 
3238.482064  	0.064146 
3240.410880  	0.064009 
3242.339696  	0.064043 
3244.268512  	0.063949 
3246.197328  	0.063862 
3248.126144  	0.063769 
3250.054960  	0.063695 
3251.983776  	0.063653 
3253.912592  	0.063772 
3255.841408  	0.063979 
3257.770224  	0.064100 
3259.699040  	0.064155 
3261.627856  	0.064183 
3263.556672  	0.064159 
3265.485488  	0.064073 
3267.414304  	0.064168 
3269.343120  	0.064333 
3271.271936  	0.064476 
3273.200752  	0.064673 
3275.129568  	0.064799 
3277.058384  	0.064761 
3278.987200  	0.064706 
3280.916016  	0.064841 
3282.844832  	0.064909 
3284.773648  	0.064858 
3286.702464  	0.064931 
3288.631280  	0.065143 
3290.560096  	0.065244 
3292.488912  	0.065439 
3294.417728  	0.065433 
3296.346544  	0.065500 
3298.275360  	0.065611 
3300.204176  	0.065890 
3302.132992  	0.066114 
3304.061808  	0.066367 
3305.990624  	0.066727 
3307.919440  	0.066808 
3309.848256  	0.066721 
3311.777072  	0.066583 
3313.705888  	0.066837 
3315.634704  	0.067294 
3317.563520  	0.067323 
3319.492336  	0.067357 
3321.421152  	0.067502 
3323.349968  	0.067682 
3325.278784  	0.067935 
3327.207600  	0.068036 
3329.136416  	0.067980 
3331.065232  	0.067853 
3332.994048  	0.067949 
3334.922864  	0.067993 
3336.851680  	0.067713 
3338.780496  	0.067519 
3340.709312  	0.067446 
3342.638128  	0.067375 
3344.566944  	0.067254 
3346.495760  	0.067138 
3348.424576  	0.067022 
3350.353392  	0.066777 
3352.282208  	0.066398 
3354.211024  	0.066165 
3356.139840  	0.066123 
3358.068656  	0.065936 
3359.997472  	0.065579 
3361.926288  	0.065194 
3363.855104  	0.064951 
3365.783920  	0.064723 
3367.712736  	0.064441 
3369.641552  	0.064044 
3371.570368  	0.063747 
3373.499184  	0.063544 
3375.428000  	0.063081 
3377.356816  	0.062828 
3379.285632  	0.062679 
3381.214448  	0.062359 
3383.143264  	0.062075 
3385.072080  	0.062013 
3387.000896  	0.061581 
3388.929712  	0.061057 
3390.858528  	0.060824 
3392.787344  	0.060505 
3394.716160  	0.060122 
3396.644976  	0.059983 
3398.573792  	0.059589 
3400.502608  	0.059021 
3402.431424  	0.058546 
3404.360240  	0.058339 
3406.289056  	0.058067 
3408.217872  	0.057721 
3410.146688  	0.057386 
3412.075504  	0.057305 
3414.004320  	0.057173 
3415.933136  	0.056729 
3417.861952  	0.056173 
3419.790768  	0.055778 
3421.719584  	0.055362 
3423.648400  	0.054985 
3425.577216  	0.054832 
3427.506032  	0.054537 
3429.434848  	0.053920 
3431.363664  	0.053584 
3433.292480  	0.053420 
3435.221296  	0.053132 
3437.150112  	0.052781 
3439.078928  	0.052468 
3441.007744  	0.052037 
3442.936560  	0.051712 
3444.865376  	0.051299 
3446.794192  	0.050570 
3448.723008  	0.050361 
3450.651824  	0.050017 
3452.580640  	0.049468 
3454.509456  	0.049030 
3456.438272  	0.048576 
3458.367088  	0.048348 
3460.295904  	0.047992 
3462.224720  	0.047435 
3464.153536  	0.046865 
3466.082352  	0.046494 
3468.011168  	0.046169 
3469.939984  	0.045542 
3471.868800  	0.044980 
3473.797616  	0.044616 
3475.726432  	0.044094 
3477.655248  	0.043591 
3479.584064  	0.043233 
3481.512880  	0.042863 
3483.441696  	0.042314 
3485.370512  	0.041609 
3487.299328  	0.041099 
3489.228144  	0.040570 
3491.156960  	0.040111 
3493.085776  	0.039793 
3495.014592  	0.039350 
3496.943408  	0.038982 
3498.872224  	0.038471 
3500.801040  	0.038066 
3502.729856  	0.037603 
3504.658672  	0.037081 
3506.587488  	0.036514 
3508.516304  	0.036246 
3510.445120  	0.036128 
3512.373936  	0.035818 
3514.302752  	0.035367 
3516.231568  	0.034749 
3518.160384  	0.034344 
3520.089200  	0.034297 
3522.018016  	0.033921 
3523.946832  	0.033570 
3525.875648  	0.033128 
3527.804464  	0.032565 
3529.733280  	0.032339 
3531.662096  	0.032083 
3533.590912  	0.031675 
3535.519728  	0.031406 
3537.448544  	0.031282 
3539.377360  	0.030906 
3541.306176  	0.030196 
3543.234992  	0.029617 
3545.163808  	0.029613 
3547.092624  	0.029485 
3549.021440  	0.028536 
3550.950256  	0.027977 
3552.879072  	0.028139 
3554.807888  	0.028017 
3556.736704  	0.027643 
3558.665520  	0.027383 
3560.594336  	0.027205 
3562.523152  	0.026625 
3564.451968  	0.025858 
3566.380784  	0.025385 
3568.309600  	0.025198 
3570.238416  	0.024961 
3572.167232  	0.024341 
3574.096048  	0.023772 
3576.024864  	0.023407 
3577.953680  	0.023131 
3579.882496  	0.022853 
3581.811312  	0.022667 
3583.740128  	0.022111 
3585.668944  	0.021266 
3587.597760  	0.021102 
3589.526576  	0.020973 
3591.455392  	0.020211 
3593.384208  	0.019701 
3595.313024  	0.019073 
3597.241840  	0.018436 
3599.170656  	0.017770 
3601.099472  	0.017396 
3603.028288  	0.017329 
3604.957104  	0.016941 
3606.885920  	0.016098 
3608.814736  	0.015867 
3610.743552  	0.015241 
3612.672368  	0.014340 
3614.601184  	0.013909 
3616.530000  	0.013121 
3618.458816  	0.012427 
3620.387632  	0.012460 
3622.316448  	0.012246 
3624.245264  	0.011835 
3626.174080  	0.010740 
3628.102896  	0.009413 
3630.031712  	0.009760 
3631.960528  	0.009967 
3633.889344  	0.009430 
3635.818160  	0.008736 
3637.746976  	0.008274 
3639.675792  	0.008257 
3641.604608  	0.008063 
3643.533424  	0.007232 
3645.462240  	0.005729 
3647.391056  	0.004079 
3649.319872  	0.002750 
3651.248688  	0.003703 
3653.177504  	0.004423 
3655.106320  	0.003642 
3657.035136  	0.003371 
3658.963952  	0.003242 
3660.892768  	0.002801 
3662.821584  	0.002621 
3664.750400  	0.002361 
3666.679216  	0.001488 
3668.608032  	0.000076 
3670.536848  	-0.000339 
3672.465664  	-0.000037 
3674.394480  	-0.001503 
3676.323296  	-0.001092 
3678.252112  	0.000658 
3680.180928  	0.001154 
3682.109744  	0.001020 
3684.038560  	0.000828 
3685.967376  	0.000237 
3687.896192  	-0.001067 
3689.825008  	-0.001509 
3691.753824  	-0.000364 
3693.682640  	0.000593 
3695.611456  	0.000673 
3697.540272  	0.000683 
3699.469088  	0.000538 
3701.397904  	0.000775 
3703.326720  	0.001363 
3705.255536  	0.001434 
3707.184352  	0.000863 
3709.113168  	-0.000050 
3711.041984  	-0.000188 
3712.970800  	0.000985 
3714.899616  	0.001725 
3716.828432  	0.001640 
3718.757248  	0.001032 
3720.686064  	0.000630 
3722.614880  	0.000950 
3724.543696  	0.001268 
3726.472512  	0.001440 
3728.401328  	0.001371 
3730.330144  	0.000148 
3732.258960  	-0.001062 
3734.187776  	-0.000585 
3736.116592  	0.000670 
3738.045408  	0.000641 
3739.974224  	0.000519 
3741.903040  	0.000264 
3743.831856  	0.000188 
3745.760672  	0.000848 
3747.689488  	-0.000191 
3749.618304  	-0.001395 
3751.547120  	-0.000928 
3753.475936  	0.000996 
3755.404752  	0.001349 
3757.333568  	0.000974 
3759.262384  	0.000917 
3761.191200  	0.001542 
3763.120016  	0.001778 
3765.048832  	0.001531 
3766.977648  	0.001300 
3768.906464  	0.000911 
3770.835280  	0.001502 
3772.764096  	0.002230 
3774.692912  	0.002192 
3776.621728  	0.001634 
3778.550544  	0.001092 
3780.479360  	0.001447 
3782.408176  	0.001692 
3784.336992  	0.001400 
3786.265808  	0.001624 
3788.194624  	0.002044 
3790.123440  	0.002028 
3792.052256  	0.001832 
3793.981072  	0.001518 
3795.909888  	0.001103 
3797.838704  	0.000959 
3799.767520  	0.000118 
3801.696336  	-0.000164 
3803.625152  	0.000708 
3805.553968  	0.000497 
3807.482784  	0.000891 
3809.411600  	0.001750 
3811.340416  	0.001979 
3813.269232  	0.001521 
3815.198048  	0.000388 
3817.126864  	0.000453 
3819.055680  	-0.000002 
3820.984496  	-0.000431 
3822.913312  	0.000990 
3824.842128  	0.001277 
3826.770944  	0.001214 
3828.699760  	0.001418 
3830.628576  	0.001000 
3832.557392  	0.000787 
3834.486208  	0.000336 
3836.415024  	-0.000455 
3838.343840  	-0.000370 
3840.272656  	0.000176 
3842.201472  	0.000577 
3844.130288  	0.001074 
3846.059104  	0.001724 
3847.987920  	0.001591 
3849.916736  	0.000739 
3851.845552  	-0.000877 
3853.774368  	-0.000500 
3855.703184  	0.001131 
3857.632000  	0.001443 
3859.560816  	0.001388 
3861.489632  	0.001130 
3863.418448  	0.000863 
3865.347264  	0.001023 
3867.276080  	0.000939 
3869.204896  	0.000590 
3871.133712  	0.001522 
3873.062528  	0.001335 
3874.991344  	0.001546 
3876.920160  	0.001763 
3878.848976  	0.001390 
3880.777792  	0.001563 
3882.706608  	0.001863 
3884.635424  	0.001444 
3886.564240  	0.001930 
3888.493056  	0.001848 
3890.421872  	0.001515 
3892.350688  	0.001952 
3894.279504  	0.002115 
3896.208320  	0.001947 
3898.137136  	0.001672 
3900.065952  	0.001445 
3901.994768  	0.001285 
3903.923584  	0.001568 
3905.852400  	0.002093 
3907.781216  	0.002143 
3909.710032  	0.002060 
3911.638848  	0.002153 
3913.567664  	0.002275 
3915.496480  	0.002377 
3917.425296  	0.002665 
3919.354112  	0.002549 
3921.282928  	0.002449 
3923.211744  	0.002342 
3925.140560  	0.002410 
3927.069376  	0.002322 
3928.998192  	0.002150 
3930.927008  	0.002455 
3932.855824  	0.002906 
3934.784640  	0.002664 
3936.713456  	0.002561 
3938.642272  	0.002417 
3940.571088  	0.002179 
3942.499904  	0.002483 
3944.428720  	0.002615 
3946.357536  	0.002430 
3948.286352  	0.002435 
3950.215168  	0.002336 
3952.143984  	0.002264 
3954.072800  	0.002265 
3956.001616  	0.002361 
3957.930432  	0.002430 
3959.859248  	0.002537 
3961.788064  	0.002518 
3963.716880  	0.002437 
3965.645696  	0.002479 
3967.574512  	0.002642 
3969.503328  	0.002470 
3971.432144  	0.002261 
3973.360960  	0.002248 
3975.289776  	0.002571 
3977.218592  	0.002735 
3979.147408  	0.002732 
3981.076224  	0.002540 
3983.005040  	0.002423 
3984.933856  	0.002534 
3986.862672  	0.002574 
3988.791488  	0.002413 
3990.720304  	0.002486 
3992.649120  	0.002617 
3994.577936  	0.002649 
3996.506752  	0.002557 
3998.435568  	0.002594 
4000.364384  	0.002682 