##TITLE=No Description
##DATA TYPE=INFRARED SPECTRUM
##XUNITS=1/CM
##YUNITS=Abs
399.264912  	0.600994 
401.193728  	0.584951 
403.122544  	0.592369 
405.051360  	0.586687 
406.980176  	0.585189 
408.908992  	0.572836 
410.837808  	0.559788 
412.766624  	0.561115 
414.695440  	0.562646 
416.624256  	0.545788 
418.553072  	0.546774 
420.481888  	0.552443 
422.410704  	0.552373 
424.339520  	0.547707 
426.268336  	0.550772 
428.197152  	0.535627 
430.125968  	0.533089 
432.054784  	0.531993 
433.983600  	0.530815 
435.912416  	0.527163 
437.841232  	0.529261 
439.770048  	0.527199 
441.698864  	0.532375 
443.627680  	0.528942 
445.556496  	0.521746 
447.485312  	0.514179 
449.414128  	0.513356 
451.342944  	0.510973 
453.271760  	0.509527 
455.200576  	0.504235 
457.129392  	0.503560 
459.058208  	0.504001 
460.987024  	0.508363 
462.915840  	0.505770 
464.844656  	0.504976 
466.773472  	0.505254 
468.702288  	0.510581 
470.631104  	0.507968 
472.559920  	0.512891 
474.488736  	0.515706 
476.417552  	0.515860 
478.346368  	0.512707 
480.275184  	0.511001 
482.204000  	0.511312 
484.132816  	0.509261 
486.061632  	0.504034 
487.990448  	0.507779 
489.919264  	0.509169 
491.848080  	0.508191 
493.776896  	0.503418 
495.705712  	0.501393 
497.634528  	0.499955 
499.563344  	0.501771 
501.492160  	0.501059 
503.420976  	0.502080 
505.349792  	0.498835 
507.278608  	0.497848 
509.207424  	0.497477 
511.136240  	0.499464 
513.065056  	0.500301 
514.993872  	0.503530 
516.922688  	0.503711 
518.851504  	0.505113 
520.780320  	0.505313 
522.709136  	0.505221 
524.637952  	0.502361 
526.566768  	0.501812 
528.495584  	0.498587 
530.424400  	0.496233 
532.353216  	0.491776 
534.282032  	0.486303 
536.210848  	0.480655 
538.139664  	0.477297 
540.068480  	0.474179 
541.997296  	0.470244 
543.926112  	0.465525 
545.854928  	0.463446 
547.783744  	0.458772 
549.712560  	0.454804 
551.641376  	0.450958 
553.570192  	0.447292 
555.499008  	0.442748 
557.427824  	0.439992 
559.356640  	0.435377 
561.285456  	0.432066 
563.214272  	0.428780 
565.143088  	0.425275 
567.071904  	0.420404 
569.000720  	0.417065 
570.929536  	0.413373 
572.858352  	0.408825 
574.787168  	0.405388 
576.715984  	0.402684 
578.644800  	0.398850 
580.573616  	0.395167 
582.502432  	0.390675 
584.431248  	0.387557 
586.360064  	0.384861 
588.288880  	0.382731 
590.217696  	0.380692 
592.146512  	0.379466 
594.075328  	0.376873 
596.004144  	0.374138 
597.932960  	0.372729 
599.861776  	0.372220 
601.790592  	0.371368 
603.719408  	0.369850 
605.648224  	0.367944 
607.577040  	0.367736 
609.505856  	0.367218 
611.434672  	0.366806 
613.363488  	0.364574 
615.292304  	0.362715 
617.221120  	0.360468 
619.149936  	0.359280 
621.078752  	0.357263 
623.007568  	0.354647 
624.936384  	0.352115 
626.865200  	0.350792 
628.794016  	0.349621 
630.722832  	0.349093 
632.651648  	0.348096 
634.580464  	0.347708 
636.509280  	0.348630 
638.438096  	0.348499 
640.366912  	0.347558 
642.295728  	0.346304 
644.224544  	0.343297 
646.153360  	0.340204 
648.082176  	0.336941 
650.010992  	0.333919 
651.939808  	0.329663 
653.868624  	0.325788 
655.797440  	0.322136 
657.726256  	0.318377 
659.655072  	0.314517 
661.583888  	0.310852 
663.512704  	0.307241 
665.441520  	0.304932 
667.370336  	0.301038 
669.299152  	0.295427 
671.227968  	0.293789 
673.156784  	0.291663 
675.085600  	0.289600 
677.014416  	0.288099 
678.943232  	0.286648 
680.872048  	0.284912 
682.800864  	0.283205 
684.729680  	0.282186 
686.658496  	0.280504 
688.587312  	0.278202 
690.516128  	0.276253 
692.444944  	0.275082 
694.373760  	0.273500 
696.302576  	0.272035 
698.231392  	0.269833 
700.160208  	0.267103 
702.089024  	0.264398 
704.017840  	0.262462 
705.946656  	0.259978 
707.875472  	0.257165 
709.804288  	0.255055 
711.733104  	0.253741 
713.661920  	0.252197 
715.590736  	0.251669 
717.519552  	0.251789 
719.448368  	0.252910 
721.377184  	0.254500 
723.306000  	0.255190 
725.234816  	0.255121 
727.163632  	0.253950 
729.092448  	0.251321 
731.021264  	0.248416 
732.950080  	0.245502 
734.878896  	0.242550 
736.807712  	0.239890 
738.736528  	0.237913 
740.665344  	0.236426 
742.594160  	0.235204 
744.522976  	0.233950 
746.451792  	0.232931 
748.380608  	0.232017 
750.309424  	0.231424 
752.238240  	0.230773 
754.167056  	0.230436 
756.095872  	0.230243 
758.024688  	0.229663 
759.953504  	0.229125 
761.882320  	0.229428 
763.811136  	0.230012 
765.739952  	0.229639 
767.668768  	0.228241 
769.597584  	0.227115 
771.526400  	0.227394 
773.455216  	0.229862 
775.384032  	0.233073 
777.312848  	0.237179 
779.241664  	0.241291 
781.170480  	0.242614 
783.099296  	0.239561 
785.028112  	0.233903 
786.956928  	0.227618 
788.885744  	0.222515 
790.814560  	0.218498 
792.743376  	0.216041 
794.672192  	0.214555 
796.601008  	0.213868 
798.529824  	0.212239 
800.458640  	0.208840 
802.387456  	0.205489 
804.316272  	0.204088 
806.245088  	0.203560 
808.173904  	0.203137 
810.102720  	0.203179 
812.031536  	0.203616 
813.960352  	0.203753 
815.889168  	0.203760 
817.817984  	0.203941 
819.746800  	0.203874 
821.675616  	0.203665 
823.604432  	0.203492 
825.533248  	0.202845 
827.462064  	0.201681 
829.390880  	0.200521 
831.319696  	0.199521 
833.248512  	0.198251 
835.177328  	0.196411 
837.106144  	0.193880 
839.034960  	0.190868 
840.963776  	0.187687 
842.892592  	0.184869 
844.821408  	0.181886 
846.750224  	0.178951 
848.679040  	0.176399 
850.607856  	0.174304 
852.536672  	0.172699 
854.465488  	0.170777 
856.394304  	0.169041 
858.323120  	0.167430 
860.251936  	0.165484 
862.180752  	0.163300 
864.109568  	0.161561 
866.038384  	0.160031 
867.967200  	0.158199 
869.896016  	0.156440 
871.824832  	0.155009 
873.753648  	0.154683 
875.682464  	0.155235 
877.611280  	0.155463 
879.540096  	0.155628 
881.468912  	0.156629 
883.397728  	0.157327 
885.326544  	0.157681 
887.255360  	0.157552 
889.184176  	0.156772 
891.112992  	0.155407 
893.041808  	0.153955 
894.970624  	0.151974 
896.899440  	0.149151 
898.828256  	0.145577 
900.757072  	0.142098 
902.685888  	0.139191 
904.614704  	0.137257 
906.543520  	0.136696 
908.472336  	0.137818 
910.401152  	0.140186 
912.329968  	0.143312 
914.258784  	0.146648 
916.187600  	0.149820 
918.116416  	0.152267 
920.045232  	0.153496 
921.974048  	0.153382 
923.902864  	0.152686 
925.831680  	0.151669 
927.760496  	0.150541 
929.689312  	0.149865 
931.618128  	0.150195 
933.546944  	0.150680 
935.475760  	0.151163 
937.404576  	0.151778 
939.333392  	0.152793 
941.262208  	0.154484 
943.191024  	0.157180 
945.119840  	0.161258 
947.048656  	0.166347 
948.977472  	0.172725 
950.906288  	0.180213 
952.835104  	0.188177 
954.763920  	0.196170 
956.692736  	0.203653 
958.621552  	0.209867 
960.550368  	0.213895 
962.479184  	0.215796 
964.408000  	0.214662 
966.336816  	0.210761 
968.265632  	0.204110 
970.194448  	0.195567 
972.123264  	0.185628 
974.052080  	0.175045 
975.980896  	0.164860 
977.909712  	0.155482 
979.838528  	0.147429 
981.767344  	0.140848 
983.696160  	0.136434 
985.624976  	0.134476 
987.553792  	0.134933 
989.482608  	0.137561 
991.411424  	0.142374 
993.340240  	0.149123 
995.269056  	0.156988 
997.197872  	0.165223 
999.126688  	0.173309 
1001.055504  	0.181434 
1002.984320  	0.189188 
1004.913136  	0.196199 
1006.841952  	0.202079 
1008.770768  	0.207239 
1010.699584  	0.211133 
1012.628400  	0.213539 
1014.557216  	0.214704 
1016.486032  	0.215471 
1018.414848  	0.215991 
1020.343664  	0.216305 
1022.272480  	0.216551 
1024.201296  	0.216486 
1026.130112  	0.215112 
1028.058928  	0.215134 
1029.987744  	0.217509 
1031.916560  	0.219941 
1033.845376  	0.221991 
1035.774192  	0.224281 
1037.703008  	0.227955 
1039.631824  	0.234210 
1041.560640  	0.241672 
1043.489456  	0.251471 
1045.418272  	0.263689 
1047.347088  	0.278116 
1049.275904  	0.292974 
1051.204720  	0.307758 
1053.133536  	0.319770 
1055.062352  	0.328620 
1056.991168  	0.333249 
1058.919984  	0.335869 
1060.848800  	0.336163 
1062.777616  	0.333534 
1064.706432  	0.327075 
1066.635248  	0.320158 
1068.564064  	0.314879 
1070.492880  	0.308653 
1072.421696  	0.300454 
1074.350512  	0.293567 
1076.279328  	0.287887 
1078.208144  	0.283524 
1080.136960  	0.279959 
1082.065776  	0.277361 
1083.994592  	0.274345 
1085.923408  	0.271037 
1087.852224  	0.266509 
1089.781040  	0.261963 
1091.709856  	0.256057 
1093.638672  	0.248498 
1095.567488  	0.238985 
1097.496304  	0.228686 
1099.425120  	0.217959 
1101.353936  	0.207523 
1103.282752  	0.197041 
1105.211568  	0.186386 
1107.140384  	0.176075 
1109.069200  	0.166437 
1110.998016  	0.157500 
1112.926832  	0.149124 
1114.855648  	0.141127 
1116.784464  	0.133245 
1118.713280  	0.126314 
1120.642096  	0.120048 
1122.570912  	0.113752 
1124.499728  	0.107861 
1126.428544  	0.102246 
1128.357360  	0.096925 
1130.286176  	0.092088 
1132.214992  	0.087907 
1134.143808  	0.084260 
1136.072624  	0.080854 
1138.001440  	0.077711 
1139.930256  	0.074673 
1141.859072  	0.072120 
1143.787888  	0.069634 
1145.716704  	0.067741 
1147.645520  	0.066268 
1149.574336  	0.065183 
1151.503152  	0.064462 
1153.431968  	0.064261 
1155.360784  	0.064314 
1157.289600  	0.064958 
1159.218416  	0.066035 
1161.147232  	0.067301 
1163.076048  	0.068480 
1165.004864  	0.070098 
1166.933680  	0.071803 
1168.862496  	0.073947 
1170.791312  	0.076428 
1172.720128  	0.078998 
1174.648944  	0.081541 
1176.577760  	0.084415 
1178.506576  	0.087242 
1180.435392  	0.090005 
1182.364208  	0.092902 
1184.293024  	0.096115 
1186.221840  	0.099416 
1188.150656  	0.103083 
1190.079472  	0.107284 
1192.008288  	0.112044 
1193.937104  	0.117564 
1195.865920  	0.123963 
1197.794736  	0.130666 
1199.723552  	0.137759 
1201.652368  	0.145039 
1203.581184  	0.152644 
1205.510000  	0.160007 
1207.438816  	0.167192 
1209.367632  	0.173997 
1211.296448  	0.180241 
1213.225264  	0.185725 
1215.154080  	0.189875 
1217.082896  	0.193237 
1219.011712  	0.195861 
1220.940528  	0.198005 
1222.869344  	0.199365 
1224.798160  	0.200080 
1226.726976  	0.199903 
1228.655792  	0.199301 
1230.584608  	0.198222 
1232.513424  	0.196467 
1234.442240  	0.193490 
1236.371056  	0.189925 
1238.299872  	0.185360 
1240.228688  	0.179088 
1242.157504  	0.172469 
1244.086320  	0.166496 
1246.015136  	0.159420 
1247.943952  	0.152007 
1249.872768  	0.144584 
1251.801584  	0.137780 
1253.730400  	0.131177 
1255.659216  	0.124722 
1257.588032  	0.118503 
1259.516848  	0.112807 
1261.445664  	0.107679 
1263.374480  	0.103132 
1265.303296  	0.099152 
1267.232112  	0.096050 
1269.160928  	0.093779 
1271.089744  	0.092373 
1273.018560  	0.091958 
1274.947376  	0.092110 
1276.876192  	0.092181 
1278.805008  	0.091668 
1280.733824  	0.090118 
1282.662640  	0.087180 
1284.591456  	0.083436 
1286.520272  	0.079630 
1288.449088  	0.076389 
1290.377904  	0.073859 
1292.306720  	0.071992 
1294.235536  	0.069721 
1296.164352  	0.066439 
1298.093168  	0.062689 
1300.021984  	0.059170 
1301.950800  	0.055873 
1303.879616  	0.053198 
1305.808432  	0.051097 
1307.737248  	0.049534 
1309.666064  	0.048209 
1311.594880  	0.047562 
1313.523696  	0.047259 
1315.452512  	0.047194 
1317.381328  	0.047661 
1319.310144  	0.048382 
1321.238960  	0.049196 
1323.167776  	0.050134 
1325.096592  	0.050686 
1327.025408  	0.050836 
1328.954224  	0.050452 
1330.883040  	0.049521 
1332.811856  	0.048353 
1334.740672  	0.047396 
1336.669488  	0.046466 
1338.598304  	0.045894 
1340.527120  	0.045314 
1342.455936  	0.044758 
1344.384752  	0.044648 
1346.313568  	0.045294 
1348.242384  	0.046503 
1350.171200  	0.048234 
1352.100016  	0.050203 
1354.028832  	0.052344 
1355.957648  	0.054517 
1357.886464  	0.056612 
1359.815280  	0.058346 
1361.744096  	0.060071 
1363.672912  	0.061503 
1365.601728  	0.062303 
1367.530544  	0.062757 
1369.459360  	0.062898 
1371.388176  	0.062142 
1373.316992  	0.060493 
1375.245808  	0.058368 
1377.174624  	0.056563 
1379.103440  	0.054528 
1381.032256  	0.052570 
1382.961072  	0.050902 
1384.889888  	0.049846 
1386.818704  	0.049158 
1388.747520  	0.048165 
1390.676336  	0.046481 
1392.605152  	0.043870 
1394.533968  	0.042491 
1396.462784  	0.044374 
1398.391600  	0.045216 
1400.320416  	0.045670 
1402.249232  	0.046114 
1404.178048  	0.047042 
1406.106864  	0.048431 
1408.035680  	0.050418 
1409.964496  	0.052566 
1411.893312  	0.055037 
1413.822128  	0.057393 
1415.750944  	0.059502 
1417.679760  	0.060496 
1419.608576  	0.060727 
1421.537392  	0.060566 
1423.466208  	0.059904 
1425.395024  	0.058555 
1427.323840  	0.056934 
1429.252656  	0.054950 
1431.181472  	0.053799 
1433.110288  	0.053296 
1435.039104  	0.052976 
1436.967920  	0.053174 
1438.896736  	0.054133 
1440.825552  	0.054712 
1442.754368  	0.055226 
1444.683184  	0.055192 
1446.612000  	0.054988 
1448.540816  	0.054876 
1450.469632  	0.055261 
1452.398448  	0.055369 
1454.327264  	0.055186 
1456.256080  	0.054360 
1458.184896  	0.054930 
1460.113712  	0.056374 
1462.042528  	0.057227 
1463.971344  	0.057281 
1465.900160  	0.059163 
1467.828976  	0.061788 
1469.757792  	0.064126 
1471.686608  	0.066528 
1473.615424  	0.071379 
1475.544240  	0.075219 
1477.473056  	0.078081 
1479.401872  	0.079395 
1481.330688  	0.079810 
1483.259504  	0.079611 
1485.188320  	0.078543 
1487.117136  	0.076208 
1489.045952  	0.073584 
1490.974768  	0.070295 
1492.903584  	0.067615 
1494.832400  	0.064059 
1496.761216  	0.059722 
1498.690032  	0.056657 
1500.618848  	0.055066 
1502.547664  	0.053039 
1504.476480  	0.050057 
1506.405296  	0.046940 
1508.334112  	0.047805 
1510.262928  	0.047980 
1512.191744  	0.047155 
1514.120560  	0.046173 
1516.049376  	0.045776 
1517.978192  	0.046190 
1519.907008  	0.046892 
1521.835824  	0.048850 
1523.764640  	0.052278 
1525.693456  	0.055405 
1527.622272  	0.058181 
1529.551088  	0.059927 
1531.479904  	0.060428 
1533.408720  	0.059527 
1535.337536  	0.059127 
1537.266352  	0.057070 
1539.195168  	0.052063 
1541.123984  	0.049339 
1543.052800  	0.050325 
1544.981616  	0.050121 
1546.910432  	0.049575 
1548.839248  	0.048831 
1550.768064  	0.048853 
1552.696880  	0.048600 
1554.625696  	0.048615 
1556.554512  	0.047723 
1558.483328  	0.046471 
1560.412144  	0.051922 
1562.340960  	0.056144 
1564.269776  	0.058607 
1566.198592  	0.062358 
1568.127408  	0.065159 
1570.056224  	0.069740 
1571.985040  	0.074539 
1573.913856  	0.076740 
1575.842672  	0.077353 
1577.771488  	0.079693 
1579.700304  	0.080677 
1581.629120  	0.080962 
1583.557936  	0.081365 
1585.486752  	0.083070 
1587.415568  	0.085857 
1589.344384  	0.090221 
1591.273200  	0.095138 
1593.202016  	0.100770 
1595.130832  	0.106149 
1597.059648  	0.111442 
1598.988464  	0.115499 
1600.917280  	0.118676 
1602.846096  	0.120189 
1604.774912  	0.121020 
1606.703728  	0.120635 
1608.632544  	0.119975 
1610.561360  	0.119236 
1612.490176  	0.119379 
1614.418992  	0.119182 
1616.347808  	0.119845 
1618.276624  	0.123592 
1620.205440  	0.128663 
1622.134256  	0.132882 
1624.063072  	0.140024 
1625.991888  	0.147293 
1627.920704  	0.154724 
1629.849520  	0.162850 
1631.778336  	0.170293 
1633.707152  	0.175437 
1635.635968  	0.180827 
1637.564784  	0.187956 
1639.493600  	0.193517 
1641.422416  	0.197119 
1643.351232  	0.199544 
1645.280048  	0.199346 
1647.208864  	0.198475 
1649.137680  	0.199424 
1651.066496  	0.199436 
1652.995312  	0.194120 
1654.924128  	0.194049 
1656.852944  	0.194740 
1658.781760  	0.193615 
1660.710576  	0.191648 
1662.639392  	0.189328 
1664.568208  	0.187830 
1666.497024  	0.186779 
1668.425840  	0.183881 
1670.354656  	0.181621 
1672.283472  	0.181577 
1674.212288  	0.181090 
1676.141104  	0.180656 
1678.069920  	0.181872 
1679.998736  	0.182187 
1681.927552  	0.181745 
1683.856368  	0.179620 
1685.785184  	0.180385 
1687.714000  	0.180965 
1689.642816  	0.179545 
1691.571632  	0.177356 
1693.500448  	0.174797 
1695.429264  	0.169583 
1697.358080  	0.164741 
1699.286896  	0.160631 
1701.215712  	0.154534 
1703.144528  	0.151596 
1705.073344  	0.146284 
1707.002160  	0.140278 
1708.930976  	0.135465 
1710.859792  	0.129963 
1712.788608  	0.123764 
1714.717424  	0.116736 
1716.646240  	0.108633 
1718.575056  	0.101149 
1720.503872  	0.095861 
1722.432688  	0.090541 
1724.361504  	0.083814 
1726.290320  	0.077882 
1728.219136  	0.071832 
1730.147952  	0.065926 
1732.076768  	0.060139 
1734.005584  	0.053744 
1735.934400  	0.048388 
1737.863216  	0.044859 
1739.792032  	0.039529 
1741.720848  	0.036098 
1743.649664  	0.032885 
1745.578480  	0.029697 
1747.507296  	0.026327 
1749.436112  	0.024310 
1751.364928  	0.022936 
1753.293744  	0.022024 
1755.222560  	0.020398 
1757.151376  	0.019496 
1759.080192  	0.018369 
1761.009008  	0.017457 
1762.937824  	0.016893 
1764.866640  	0.016875 
1766.795456  	0.016121 
1768.724272  	0.015588 
1770.653088  	0.013749 
1772.581904  	0.013251 
1774.510720  	0.014075 
1776.439536  	0.014487 
1778.368352  	0.014092 
1780.297168  	0.014110 
1782.225984  	0.013912 
1784.154800  	0.013759 
1786.083616  	0.013584 
1788.012432  	0.013436 
1789.941248  	0.012596 
1791.870064  	0.012160 
1793.798880  	0.012141 
1795.727696  	0.012587 
1797.656512  	0.012150 
1799.585328  	0.011797 
1801.514144  	0.011842 
1803.442960  	0.011877 
1805.371776  	0.011417 
1807.300592  	0.011502 
1809.229408  	0.011113 
1811.158224  	0.011081 
1813.087040  	0.010955 
1815.015856  	0.010892 
1816.944672  	0.010743 
1818.873488  	0.011080 
1820.802304  	0.011104 
1822.731120  	0.011102 
1824.659936  	0.010553 
1826.588752  	0.010656 
1828.517568  	0.009993 
1830.446384  	0.010309 
1832.375200  	0.010913 
1834.304016  	0.011031 
1836.232832  	0.010686 
1838.161648  	0.011045 
1840.090464  	0.010844 
1842.019280  	0.010238 
1843.948096  	0.009580 
1845.876912  	0.010458 
1847.805728  	0.010828 
1849.734544  	0.010971 
1851.663360  	0.010547 
1853.592176  	0.010566 
1855.520992  	0.010603 
1857.449808  	0.011102 
1859.378624  	0.010909 
1861.307440  	0.010850 
1863.236256  	0.010319 
1865.165072  	0.010247 
1867.093888  	0.009866 
1869.022704  	0.010288 
1870.951520  	0.010647 
1872.880336  	0.010881 
1874.809152  	0.010491 
1876.737968  	0.010424 
1878.666784  	0.010013 
1880.595600  	0.010381 
1882.524416  	0.010604 
1884.453232  	0.010439 
1886.382048  	0.009904 
1888.310864  	0.010028 
1890.239680  	0.010512 
1892.168496  	0.010844 
1894.097312  	0.010243 
1896.026128  	0.010537 
1897.954944  	0.010232 
1899.883760  	0.010097 
1901.812576  	0.010059 
1903.741392  	0.010230 
1905.670208  	0.010102 
1907.599024  	0.010111 
1909.527840  	0.009767 
1911.456656  	0.010213 
1913.385472  	0.010408 
1915.314288  	0.010617 
1917.243104  	0.010213 
1919.171920  	0.010349 
1921.100736  	0.010382 
1923.029552  	0.010829 
1924.958368  	0.010235 
1926.887184  	0.010362 
1928.816000  	0.010069 
1930.744816  	0.010034 
1932.673632  	0.009649 
1934.602448  	0.009871 
1936.531264  	0.010021 
1938.460080  	0.010136 
1940.388896  	0.009854 
1942.317712  	0.010239 
1944.246528  	0.010104 
1946.175344  	0.010258 
1948.104160  	0.009111 
1950.032976  	0.009469 
1951.961792  	0.009933 
1953.890608  	0.010255 
1955.819424  	0.009462 
1957.748240  	0.010301 
1959.677056  	0.011009 
1961.605872  	0.010665 
1963.534688  	0.008985 
1965.463504  	0.009593 
1967.392320  	0.009741 
1969.321136  	0.009557 
1971.249952  	0.009738 
1973.178768  	0.011274 
1975.107584  	0.010289 
1977.036400  	0.009669 
1978.965216  	0.010901 
1980.894032  	0.011774 
1982.822848  	0.010239 
1984.751664  	0.010708 
1986.680480  	0.010656 
1988.609296  	0.011335 
1990.538112  	0.011238 
1992.466928  	0.011713 
1994.395744  	0.011278 
1996.324560  	0.011492 
1998.253376  	0.010634 
2000.182192  	0.010871 
2002.111008  	0.010799 
2004.039824  	0.010302 
2005.968640  	0.009719 
2007.897456  	0.011248 
2009.826272  	0.010429 
2011.755088  	0.009338 
2013.683904  	0.009911 
2015.612720  	0.011512 
2017.541536  	0.010145 
2019.470352  	0.010452 
2021.399168  	0.010802 
2023.327984  	0.011080 
2025.256800  	0.010891 
2027.185616  	0.010468 
2029.114432  	0.009896 
2031.043248  	0.011900 
2032.972064  	0.012111 
2034.900880  	0.012200 
2036.829696  	0.011912 
2038.758512  	0.011277 
2040.687328  	0.010754 
2042.616144  	0.011178 
2044.544960  	0.011105 
2046.473776  	0.011943 
2048.402592  	0.011991 
2050.331408  	0.012680 
2052.260224  	0.012320 
2054.189040  	0.012470 
2056.117856  	0.011369 
2058.046672  	0.011201 
2059.975488  	0.011056 
2061.904304  	0.011350 
2063.833120  	0.012142 
2065.761936  	0.012140 
2067.690752  	0.011374 
2069.619568  	0.011182 
2071.548384  	0.010347 
2073.477200  	0.010654 
2075.406016  	0.011496 
2077.334832  	0.012148 
2079.263648  	0.011444 
2081.192464  	0.011431 
2083.121280  	0.011349 
2085.050096  	0.011617 
2086.978912  	0.011845 
2088.907728  	0.011848 
2090.836544  	0.010876 
2092.765360  	0.010440 
2094.694176  	0.010789 
2096.622992  	0.011200 
2098.551808  	0.010904 
2100.480624  	0.010707 
2102.409440  	0.010625 
2104.338256  	0.011129 
2106.267072  	0.011301 
2108.195888  	0.011587 
2110.124704  	0.011893 
2112.053520  	0.012238 
2113.982336  	0.011864 
2115.911152  	0.011708 
2117.839968  	0.011215 
2119.768784  	0.010648 
2121.697600  	0.010547 
2123.626416  	0.010501 
2125.555232  	0.010166 
2127.484048  	0.010652 
2129.412864  	0.010626 
2131.341680  	0.009939 
2133.270496  	0.010014 
2135.199312  	0.010482 
2137.128128  	0.010894 
2139.056944  	0.011294 
2140.985760  	0.010116 
2142.914576  	0.010555 
2144.843392  	0.010376 
2146.772208  	0.010942 
2148.701024  	0.011292 
2150.629840  	0.012206 
2152.558656  	0.010572 
2154.487472  	0.008566 
2156.416288  	0.008341 
2158.345104  	0.012137 
2160.273920  	0.015007 
2162.202736  	0.015466 
2164.131552  	0.014734 
2166.060368  	0.015239 
2167.989184  	0.014157 
2169.918000  	0.012765 
2171.846816  	0.012332 
2173.775632  	0.013120 
2175.704448  	0.014366 
2177.633264  	0.015068 
2179.562080  	0.013477 
2181.490896  	0.013240 
2183.419712  	0.013879 
2185.348528  	0.014344 
2187.277344  	0.013773 
2189.206160  	0.013674 
2191.134976  	0.013919 
2193.063792  	0.014994 
2194.992608  	0.015000 
2196.921424  	0.014145 
2198.850240  	0.014129 
2200.779056  	0.014207 
2202.707872  	0.013904 
2204.636688  	0.014005 
2206.565504  	0.013970 
2208.494320  	0.014624 
2210.423136  	0.013371 
2212.351952  	0.012919 
2214.280768  	0.013075 
2216.209584  	0.012979 
2218.138400  	0.012389 
2220.067216  	0.012592 
2221.996032  	0.012924 
2223.924848  	0.012642 
2225.853664  	0.012825 
2227.782480  	0.013538 
2229.711296  	0.013395 
2231.640112  	0.013234 
2233.568928  	0.013093 
2235.497744  	0.013050 
2237.426560  	0.012322 
2239.355376  	0.012208 
2241.284192  	0.012111 
2243.213008  	0.012556 
2245.141824  	0.012819 
2247.070640  	0.012323 
2248.999456  	0.011994 
2250.928272  	0.012643 
2252.857088  	0.012486 
2254.785904  	0.012201 
2256.714720  	0.012977 
2258.643536  	0.013465 
2260.572352  	0.013128 
2262.501168  	0.013317 
2264.429984  	0.013358 
2266.358800  	0.013493 
2268.287616  	0.013262 
2270.216432  	0.013120 
2272.145248  	0.013045 
2274.074064  	0.013087 
2276.002880  	0.013088 
2277.931696  	0.013568 
2279.860512  	0.013971 
2281.789328  	0.014012 
2283.718144  	0.013789 
2285.646960  	0.013937 
2287.575776  	0.014034 
2289.504592  	0.013737 
2291.433408  	0.013462 
2293.362224  	0.013582 
2295.291040  	0.013634 
2297.219856  	0.014007 
2299.148672  	0.014047 
2301.077488  	0.014011 
2303.006304  	0.014217 
2304.935120  	0.014318 
2306.863936  	0.014310 
2308.792752  	0.014325 
2310.721568  	0.014297 
2312.650384  	0.014185 
2314.579200  	0.013789 
2316.508016  	0.013859 
2318.436832  	0.013894 
2320.365648  	0.013631 
2322.294464  	0.013187 
2324.223280  	0.012416 
2326.152096  	0.010840 
2328.080912  	0.009825 
2330.009728  	0.009389 
2331.938544  	0.008714 
2333.867360  	0.007426 
2335.796176  	0.007106 
2337.724992  	0.007242 
2339.653808  	0.006767 
2341.582624  	0.006724 
2343.511440  	0.008409 
2345.440256  	0.010053 
2347.369072  	0.011381 
2349.297888  	0.011195 
2351.226704  	0.009786 
2353.155520  	0.008406 
2355.084336  	0.006991 
2357.013152  	0.005872 
2358.941968  	0.005569 
2360.870784  	0.005288 
2362.799600  	0.005840 
2364.728416  	0.006160 
2366.657232  	0.007195 
2368.586048  	0.008236 
2370.514864  	0.009544 
2372.443680  	0.010868 
2374.372496  	0.012378 
2376.301312  	0.013377 
2378.230128  	0.014072 
2380.158944  	0.014187 
2382.087760  	0.014003 
2384.016576  	0.013961 
2385.945392  	0.014001 
2387.874208  	0.013632 
2389.803024  	0.013453 
2391.731840  	0.013451 
2393.660656  	0.013547 
2395.589472  	0.013579 
2397.518288  	0.013643 
2399.447104  	0.013543 
2401.375920  	0.013376 
2403.304736  	0.013476 
2405.233552  	0.013725 
2407.162368  	0.013869 
2409.091184  	0.013849 
2411.020000  	0.013837 
2412.948816  	0.014038 
2414.877632  	0.014129 
2416.806448  	0.014321 
2418.735264  	0.014475 
2420.664080  	0.014377 
2422.592896  	0.014187 
2424.521712  	0.014320 
2426.450528  	0.014465 
2428.379344  	0.014414 
2430.308160  	0.014407 
2432.236976  	0.014638 
2434.165792  	0.015082 
2436.094608  	0.015484 
2438.023424  	0.015548 
2439.952240  	0.015652 
2441.881056  	0.015691 
2443.809872  	0.015677 
2445.738688  	0.015717 
2447.667504  	0.015881 
2449.596320  	0.015730 
2451.525136  	0.015753 
2453.453952  	0.015961 
2455.382768  	0.016230 
2457.311584  	0.016270 
2459.240400  	0.016301 
2461.169216  	0.016217 
2463.098032  	0.016067 
2465.026848  	0.015974 
2466.955664  	0.016073 
2468.884480  	0.015899 
2470.813296  	0.016131 
2472.742112  	0.016146 
2474.670928  	0.016098 
2476.599744  	0.016225 
2478.528560  	0.016379 
2480.457376  	0.016474 
2482.386192  	0.016405 
2484.315008  	0.016529 
2486.243824  	0.016914 
2488.172640  	0.016948 
2490.101456  	0.016905 
2492.030272  	0.017115 
2493.959088  	0.017171 
2495.887904  	0.016988 
2497.816720  	0.017127 
2499.745536  	0.017219 
2501.674352  	0.017367 
2503.603168  	0.017345 
2505.531984  	0.017289 
2507.460800  	0.017330 
2509.389616  	0.017521 
2511.318432  	0.017446 
2513.247248  	0.017570 
2515.176064  	0.017717 
2517.104880  	0.018027 
2519.033696  	0.018239 
2520.962512  	0.018216 
2522.891328  	0.018469 
2524.820144  	0.018620 
2526.748960  	0.018434 
2528.677776  	0.018557 
2530.606592  	0.018538 
2532.535408  	0.018519 
2534.464224  	0.018648 
2536.393040  	0.018849 
2538.321856  	0.018882 
2540.250672  	0.018946 
2542.179488  	0.018875 
2544.108304  	0.018953 
2546.037120  	0.018969 
2547.965936  	0.019380 
2549.894752  	0.019725 
2551.823568  	0.019771 
2553.752384  	0.019776 
2555.681200  	0.019885 
2557.610016  	0.020010 
2559.538832  	0.020145 
2561.467648  	0.020034 
2563.396464  	0.020218 
2565.325280  	0.020575 
2567.254096  	0.020675 
2569.182912  	0.020400 
2571.111728  	0.020246 
2573.040544  	0.020076 
2574.969360  	0.020172 
2576.898176  	0.020480 
2578.826992  	0.020710 
2580.755808  	0.020638 
2582.684624  	0.020737 
2584.613440  	0.020672 
2586.542256  	0.020878 
2588.471072  	0.021193 
2590.399888  	0.021215 
2592.328704  	0.021166 
2594.257520  	0.021449 
2596.186336  	0.021740 
2598.115152  	0.021744 
2600.043968  	0.021445 
2601.972784  	0.021471 
2603.901600  	0.021762 
2605.830416  	0.021885 
2607.759232  	0.021774 
2609.688048  	0.021930 
2611.616864  	0.022092 
2613.545680  	0.022173 
2615.474496  	0.022211 
2617.403312  	0.022362 
2619.332128  	0.022559 
2621.260944  	0.022719 
2623.189760  	0.022665 
2625.118576  	0.022785 
2627.047392  	0.023005 
2628.976208  	0.023285 
2630.905024  	0.023410 
2632.833840  	0.023524 
2634.762656  	0.023634 
2636.691472  	0.023705 
2638.620288  	0.023793 
2640.549104  	0.023913 
2642.477920  	0.023991 
2644.406736  	0.024063 
2646.335552  	0.024312 
2648.264368  	0.024528 
2650.193184  	0.024722 
2652.122000  	0.024933 
2654.050816  	0.025078 
2655.979632  	0.025097 
2657.908448  	0.025105 
2659.837264  	0.025162 
2661.766080  	0.025156 
2663.694896  	0.025185 
2665.623712  	0.025167 
2667.552528  	0.025259 
2669.481344  	0.025457 
2671.410160  	0.025647 
2673.338976  	0.025812 
2675.267792  	0.026007 
2677.196608  	0.026143 
2679.125424  	0.026338 
2681.054240  	0.026391 
2682.983056  	0.026407 
2684.911872  	0.026574 
2686.840688  	0.026739 
2688.769504  	0.026854 
2690.698320  	0.027020 
2692.627136  	0.027147 
2694.555952  	0.027258 
2696.484768  	0.027260 
2698.413584  	0.027304 
2700.342400  	0.027407 
2702.271216  	0.027540 
2704.200032  	0.027697 
2706.128848  	0.027937 
2708.057664  	0.028131 
2709.986480  	0.028208 
2711.915296  	0.028178 
2713.844112  	0.028262 
2715.772928  	0.028553 
2717.701744  	0.028755 
2719.630560  	0.028727 
2721.559376  	0.028809 
2723.488192  	0.029037 
2725.417008  	0.029287 
2727.345824  	0.029440 
2729.274640  	0.029435 
2731.203456  	0.029485 
2733.132272  	0.029592 
2735.061088  	0.029701 
2736.989904  	0.029887 
2738.918720  	0.029900 
2740.847536  	0.029883 
2742.776352  	0.030047 
2744.705168  	0.030250 
2746.633984  	0.030299 
2748.562800  	0.030369 
2750.491616  	0.030466 
2752.420432  	0.030554 
2754.349248  	0.030610 
2756.278064  	0.030654 
2758.206880  	0.030710 
2760.135696  	0.030964 
2762.064512  	0.031029 
2763.993328  	0.031033 
2765.922144  	0.031091 
2767.850960  	0.031184 
2769.779776  	0.031240 
2771.708592  	0.031242 
2773.637408  	0.031258 
2775.566224  	0.031443 
2777.495040  	0.031531 
2779.423856  	0.031588 
2781.352672  	0.031745 
2783.281488  	0.031879 
2785.210304  	0.031874 
2787.139120  	0.031982 
2789.067936  	0.032182 
2790.996752  	0.032269 
2792.925568  	0.032302 
2794.854384  	0.032438 
2796.783200  	0.032554 
2798.712016  	0.032628 
2800.640832  	0.032630 
2802.569648  	0.032773 
2804.498464  	0.032938 
2806.427280  	0.032942 
2808.356096  	0.033012 
2810.284912  	0.033215 
2812.213728  	0.033249 
2814.142544  	0.033290 
2816.071360  	0.033475 
2818.000176  	0.033456 
2819.928992  	0.033386 
2821.857808  	0.033488 
2823.786624  	0.033544 
2825.715440  	0.033485 
2827.644256  	0.033331 
2829.573072  	0.033351 
2831.501888  	0.033112 
2833.430704  	0.032873 
2835.359520  	0.032801 
2837.288336  	0.032713 
2839.217152  	0.032560 
2841.145968  	0.032347 
2843.074784  	0.032184 
2845.003600  	0.032073 
2846.932416  	0.031947 
2848.861232  	0.031782 
2850.790048  	0.031546 
2852.718864  	0.031343 
2854.647680  	0.031126 
2856.576496  	0.031052 
2858.505312  	0.030851 
2860.434128  	0.030530 
2862.362944  	0.030083 
2864.291760  	0.029690 
2866.220576  	0.029436 
2868.149392  	0.029510 
2870.078208  	0.029672 
2872.007024  	0.029878 
2873.935840  	0.030105 
2875.864656  	0.030366 
2877.793472  	0.030666 
2879.722288  	0.030861 
2881.651104  	0.030695 
2883.579920  	0.030408 
2885.508736  	0.030478 
2887.437552  	0.030791 
2889.366368  	0.030976 
2891.295184  	0.030827 
2893.224000  	0.030727 
2895.152816  	0.030842 
2897.081632  	0.030586 
2899.010448  	0.029653 
2900.939264  	0.028882 
2902.868080  	0.029607 
2904.796896  	0.030419 
2906.725712  	0.030814 
2908.654528  	0.031094 
2910.583344  	0.031375 
2912.512160  	0.032027 
2914.440976  	0.032984 
2916.369792  	0.033561 
2918.298608  	0.033991 
2920.227424  	0.034603 
2922.156240  	0.035374 
2924.085056  	0.036141 
2926.013872  	0.037041 
2927.942688  	0.038012 
2929.871504  	0.038876 
2931.800320  	0.039681 
2933.729136  	0.040154 
2935.657952  	0.040403 
2937.586768  	0.040856 
2939.515584  	0.041132 
2941.444400  	0.041231 
2943.373216  	0.041323 
2945.302032  	0.041418 
2947.230848  	0.041563 
2949.159664  	0.041333 
2951.088480  	0.040867 
2953.017296  	0.040576 
2954.946112  	0.040072 
2956.874928  	0.039366 
2958.803744  	0.038734 
2960.732560  	0.038231 
2962.661376  	0.037732 
2964.590192  	0.037072 
2966.519008  	0.036251 
2968.447824  	0.035367 
2970.376640  	0.034742 
2972.305456  	0.034461 
2974.234272  	0.034425 
2976.163088  	0.034247 
2978.091904  	0.034149 
2980.020720  	0.034187 
2981.949536  	0.034109 
2983.878352  	0.033728 
2985.807168  	0.033111 
2987.735984  	0.032725 
2989.664800  	0.033049 
2991.593616  	0.034767 
2993.522432  	0.035783 
2995.451248  	0.036076 
2997.380064  	0.036705 
2999.308880  	0.037524 
3001.237696  	0.038412 
3003.166512  	0.039130 
3005.095328  	0.039879 
3007.024144  	0.040956 
3008.952960  	0.041901 
3010.881776  	0.042654 
3012.810592  	0.043454 
3014.739408  	0.044299 
3016.668224  	0.045134 
3018.597040  	0.045771 
3020.525856  	0.046329 
3022.454672  	0.046979 
3024.383488  	0.047737 
3026.312304  	0.048343 
3028.241120  	0.048778 
3030.169936  	0.049222 
3032.098752  	0.049963 
3034.027568  	0.050326 
3035.956384  	0.050571 
3037.885200  	0.051072 
3039.814016  	0.051665 
3041.742832  	0.052105 
3043.671648  	0.052318 
3045.600464  	0.052574 
3047.529280  	0.052867 
3049.458096  	0.053374 
3051.386912  	0.053715 
3053.315728  	0.053985 
3055.244544  	0.054355 
3057.173360  	0.054940 
3059.102176  	0.055311 
3061.030992  	0.055493 
3062.959808  	0.055842 
3064.888624  	0.056355 
3066.817440  	0.056941 
3068.746256  	0.057318 
3070.675072  	0.057600 
3072.603888  	0.058135 
3074.532704  	0.058644 
3076.461520  	0.058947 
3078.390336  	0.059148 
3080.319152  	0.059581 
3082.247968  	0.060204 
3084.176784  	0.060644 
3086.105600  	0.060886 
3088.034416  	0.061205 
3089.963232  	0.061618 
3091.892048  	0.061943 
3093.820864  	0.062210 
3095.749680  	0.062528 
3097.678496  	0.062631 
3099.607312  	0.063096 
3101.536128  	0.063645 
3103.464944  	0.063944 
3105.393760  	0.064291 
3107.322576  	0.064838 
3109.251392  	0.065190 
3111.180208  	0.065285 
3113.109024  	0.065426 
3115.037840  	0.065692 
3116.966656  	0.066074 
3118.895472  	0.066374 
3120.824288  	0.066544 
3122.753104  	0.066863 
3124.681920  	0.067182 
3126.610736  	0.067336 
3128.539552  	0.067556 
3130.468368  	0.067699 
3132.397184  	0.067861 
3134.326000  	0.068070 
3136.254816  	0.068355 
3138.183632  	0.068673 
3140.112448  	0.068758 
3142.041264  	0.068901 
3143.970080  	0.069188 
3145.898896  	0.069367 
3147.827712  	0.069539 
3149.756528  	0.069960 
3151.685344  	0.070422 
3153.614160  	0.070839 
3155.542976  	0.071009 
3157.471792  	0.071222 
3159.400608  	0.071552 
3161.329424  	0.071998 
3163.258240  	0.072448 
3165.187056  	0.072625 
3167.115872  	0.072760 
3169.044688  	0.072950 
3170.973504  	0.072981 
3172.902320  	0.073064 
3174.831136  	0.073365 
3176.759952  	0.073588 
3178.688768  	0.073814 
3180.617584  	0.073967 
3182.546400  	0.073937 
3184.475216  	0.074187 
3186.404032  	0.074297 
3188.332848  	0.074255 
3190.261664  	0.074458 
3192.190480  	0.074523 
3194.119296  	0.074350 
3196.048112  	0.074395 
3197.976928  	0.074591 
3199.905744  	0.074683 
3201.834560  	0.074613 
3203.763376  	0.074467 
3205.692192  	0.074353 
3207.621008  	0.074272 
3209.549824  	0.074152 
3211.478640  	0.073954 
3213.407456  	0.073748 
3215.336272  	0.073721 
3217.265088  	0.073605 
3219.193904  	0.073411 
3221.122720  	0.073120 
3223.051536  	0.072885 
3224.980352  	0.072644 
3226.909168  	0.072267 
3228.837984  	0.071978 
3230.766800  	0.072017 
3232.695616  	0.072096 
3234.624432  	0.071849 
3236.553248  	0.071732 
3238.482064  	0.071730 
3240.410880  	0.071506 
3242.339696  	0.071370 
3244.268512  	0.071334 
3246.197328  	0.071319 
3248.126144  	0.071252 
3250.054960  	0.071277 
3251.983776  	0.071286 
3253.912592  	0.071239 
3255.841408  	0.071346 
3257.770224  	0.071613 
3259.699040  	0.071754 
3261.627856  	0.071738 
3263.556672  	0.071660 
3265.485488  	0.071591 
3267.414304  	0.071648 
3269.343120  	0.071904 
3271.271936  	0.072048 
3273.200752  	0.072114 
3275.129568  	0.072215 
3277.058384  	0.072196 
3278.987200  	0.072323 
3280.916016  	0.072496 
3282.844832  	0.072553 
3284.773648  	0.072692 
3286.702464  	0.072777 
3288.631280  	0.072937 
3290.560096  	0.073141 
3292.488912  	0.073321 
3294.417728  	0.073533 
3296.346544  	0.073698 
3298.275360  	0.073820 
3300.204176  	0.074007 
3302.132992  	0.074223 
3304.061808  	0.074549 
3305.990624  	0.074809 
3307.919440  	0.074834 
3309.848256  	0.074863 
3311.777072  	0.074898 
3313.705888  	0.075260 
3315.634704  	0.075717 
3317.563520  	0.075909 
3319.492336  	0.076106 
3321.421152  	0.076112 
3323.349968  	0.076085 
3325.278784  	0.076242 
3327.207600  	0.076450 
3329.136416  	0.076464 
3331.065232  	0.076319 
3332.994048  	0.076299 
3334.922864  	0.076305 
3336.851680  	0.076248 
3338.780496  	0.076174 
3340.709312  	0.075984 
3342.638128  	0.075901 
3344.566944  	0.075788 
3346.495760  	0.075539 
3348.424576  	0.075244 
3350.353392  	0.075002 
3352.282208  	0.074818 
3354.211024  	0.074640 
3356.139840  	0.074487 
3358.068656  	0.074252 
3359.997472  	0.073849 
3361.926288  	0.073413 
3363.855104  	0.072973 
3365.783920  	0.072641 
3367.712736  	0.072488 
3369.641552  	0.072110 
3371.570368  	0.071641 
3373.499184  	0.071474 
3375.428000  	0.071147 
3377.356816  	0.070693 
3379.285632  	0.070378 
3381.214448  	0.070191 
3383.143264  	0.069901 
3385.072080  	0.069555 
3387.000896  	0.069239 
3388.929712  	0.068816 
3390.858528  	0.068367 
3392.787344  	0.068182 
3394.716160  	0.067855 
3396.644976  	0.067461 
3398.573792  	0.067085 
3400.502608  	0.066542 
3402.431424  	0.066057 
3404.360240  	0.065599 
3406.289056  	0.065140 
3408.217872  	0.064846 
3410.146688  	0.064594 
3412.075504  	0.064524 
3414.004320  	0.064313 
3415.933136  	0.063714 
3417.861952  	0.063028 
3419.790768  	0.062719 
3421.719584  	0.062492 
3423.648400  	0.061938 
3425.577216  	0.061587 
3427.506032  	0.061401 
3429.434848  	0.060809 
3431.363664  	0.060397 
3433.292480  	0.060097 
3435.221296  	0.059780 
3437.150112  	0.059507 
3439.078928  	0.059265 
3441.007744  	0.058808 
3442.936560  	0.058376 
3444.865376  	0.057748 
3446.794192  	0.056923 
3448.723008  	0.056520 
3450.651824  	0.056066 
3452.580640  	0.055688 
3454.509456  	0.055312 
3456.438272  	0.054714 
3458.367088  	0.054342 
3460.295904  	0.054185 
3462.224720  	0.053631 
3464.153536  	0.052852 
3466.082352  	0.052307 
3468.011168  	0.051946 
3469.939984  	0.051516 
3471.868800  	0.050883 
3473.797616  	0.050281 
3475.726432  	0.049678 
3477.655248  	0.049038 
3479.584064  	0.048631 
3481.512880  	0.048188 
3483.441696  	0.047424 
3485.370512  	0.046665 
3487.299328  	0.046270 
3489.228144  	0.045905 
3491.156960  	0.045235 
3493.085776  	0.044621 
3495.014592  	0.044066 
3496.943408  	0.043737 
3498.872224  	0.043223 
3500.801040  	0.042780 
3502.729856  	0.042356 
3504.658672  	0.041847 
3506.587488  	0.040957 
3508.516304  	0.040549 
3510.445120  	0.040525 
3512.373936  	0.040223 
3514.302752  	0.039901 
3516.231568  	0.039439 
3518.160384  	0.038895 
3520.089200  	0.038501 
3522.018016  	0.038096 
3523.946832  	0.037843 
3525.875648  	0.037294 
3527.804464  	0.036727 
3529.733280  	0.036419 
3531.662096  	0.036055 
3533.590912  	0.035488 
3535.519728  	0.035177 
3537.448544  	0.034999 
3539.377360  	0.034603 
3541.306176  	0.033954 
3543.234992  	0.033370 
3545.163808  	0.033413 
3547.092624  	0.033068 
3549.021440  	0.032187 
3550.950256  	0.031671 
3552.879072  	0.031666 
3554.807888  	0.031442 
3556.736704  	0.030824 
3558.665520  	0.030450 
3560.594336  	0.030298 
3562.523152  	0.029747 
3564.451968  	0.029023 
3566.380784  	0.028709 
3568.309600  	0.028771 
3570.238416  	0.028201 
3572.167232  	0.027470 
3574.096048  	0.027054 
3576.024864  	0.026746 
3577.953680  	0.026228 
3579.882496  	0.025868 
3581.811312  	0.025481 
3583.740128  	0.024507 
3585.668944  	0.023662 
3587.597760  	0.023911 
3589.526576  	0.023880 
3591.455392  	0.022629 
3593.384208  	0.021927 
3595.313024  	0.021857 
3597.241840  	0.021366 
3599.170656  	0.020365 
3601.099472  	0.019858 
3603.028288  	0.019581 
3604.957104  	0.018949 
3606.885920  	0.018048 
3608.814736  	0.018050 
3610.743552  	0.017325 
3612.672368  	0.016356 
3614.601184  	0.015872 
3616.530000  	0.014698 
3618.458816  	0.014101 
3620.387632  	0.014285 
3622.316448  	0.013905 
3624.245264  	0.013084 
3626.174080  	0.011464 
3628.102896  	0.010308 
3630.031712  	0.011680 
3631.960528  	0.011256 
3633.889344  	0.010513 
3635.818160  	0.009773 
3637.746976  	0.009147 
3639.675792  	0.008902 
3641.604608  	0.008430 
3643.533424  	0.007173 
3645.462240  	0.005121 
3647.391056  	0.003563 
3649.319872  	0.003248 
3651.248688  	0.004712 
3653.177504  	0.004432 
3655.106320  	0.003169 
3657.035136  	0.003127 
3658.963952  	0.002961 
3660.892768  	0.002359 
3662.821584  	0.001783 
3664.750400  	0.001461 
3666.679216  	0.000136 
3668.608032  	-0.001721 
3670.536848  	-0.001105 
3672.465664  	-0.000900 
3674.394480  	-0.002934 
3676.323296  	-0.001398 
3678.252112  	0.000414 
3680.180928  	0.000719 
3682.109744  	0.000520 
3684.038560  	-0.000023 
3685.967376  	-0.001392 
3687.896192  	-0.002619 
3689.825008  	-0.001940 
3691.753824  	-0.000646 
3693.682640  	0.000152 
3695.611456  	0.000292 
3697.540272  	0.000530 
3699.469088  	0.000276 
3701.397904  	0.000738 
3703.326720  	0.001593 
3705.255536  	0.001562 
3707.184352  	0.000842 
3709.113168  	-0.000291 
3711.041984  	0.000011 
3712.970800  	0.001680 
3714.899616  	0.002287 
3716.828432  	0.001886 
3718.757248  	0.001198 
3720.686064  	0.000787 
3722.614880  	0.001263 
3724.543696  	0.001806 
3726.472512  	0.002259 
3728.401328  	0.001847 
3730.330144  	-0.000065 
3732.258960  	-0.000965 
3734.187776  	-0.000040 
3736.116592  	0.001974 
3738.045408  	0.001891 
3739.974224  	0.001044 
3741.903040  	-0.000026 
3743.831856  	0.000039 
3745.760672  	0.001998 
3747.689488  	-0.000217 
3749.618304  	-0.001561 
3751.547120  	-0.000150 
3753.475936  	0.002112 
3755.404752  	0.001748 
3757.333568  	0.000939 
3759.262384  	0.001062 
3761.191200  	0.002213 
3763.120016  	0.002117 
3765.048832  	0.001683 
3766.977648  	0.001628 
3768.906464  	0.001259 
3770.835280  	0.002077 
3772.764096  	0.002618 
3774.692912  	0.002463 
3776.621728  	0.001672 
3778.550544  	0.000946 
3780.479360  	0.001774 
3782.408176  	0.002018 
3784.336992  	0.001740 
3786.265808  	0.002094 
3788.194624  	0.002460 
3790.123440  	0.002333 
3792.052256  	0.002122 
3793.981072  	0.001471 
3795.909888  	0.000932 
3797.838704  	0.000996 
3799.767520  	-0.000341 
3801.696336  	0.000425 
3803.625152  	0.001545 
3805.553968  	0.000599 
3807.482784  	0.001553 
3809.411600  	0.002391 
3811.340416  	0.002306 
3813.269232  	0.001246 
3815.198048  	0.000109 
3817.126864  	0.000926 
3819.055680  	-0.000151 
3820.984496  	0.000168 
3822.913312  	0.002256 
3824.842128  	0.001648 
3826.770944  	0.001513 
3828.699760  	0.001561 
3830.628576  	0.000893 
3832.557392  	0.000920 
3834.486208  	0.000281 
3836.415024  	-0.000484 
3838.343840  	0.000081 
3840.272656  	0.000797 
3842.201472  	0.001168 
3844.130288  	0.001599 
3846.059104  	0.002143 
3847.987920  	0.001715 
3849.916736  	0.000245 
3851.845552  	-0.001550 
3853.774368  	0.000651 
3855.703184  	0.002560 
3857.632000  	0.002113 
3859.560816  	0.001450 
3861.489632  	0.000910 
3863.418448  	0.000785 
3865.347264  	0.001572 
3867.276080  	0.001133 
3869.204896  	0.000723 
3871.133712  	0.002239 
3873.062528  	0.001581 
3874.991344  	0.002051 
3876.920160  	0.001857 
3878.848976  	0.001246 
3880.777792  	0.002037 
3882.706608  	0.002104 
3884.635424  	0.001550 
3886.564240  	0.002531 
3888.493056  	0.001959 
3890.421872  	0.001431 
3892.350688  	0.002210 
3894.279504  	0.002401 
3896.208320  	0.001840 
3898.137136  	0.001325 
3900.065952  	0.001559 
3901.994768  	0.001685 
3903.923584  	0.002191 
3905.852400  	0.003009 
3907.781216  	0.002814 
3909.710032  	0.002457 
3911.638848  	0.002337 
3913.567664  	0.002123 
3915.496480  	0.001995 
3917.425296  	0.002772 
3919.354112  	0.002920 
3921.282928  	0.002625 
3923.211744  	0.002262 
3925.140560  	0.002635 
3927.069376  	0.002665 
3928.998192  	0.002263 
3930.927008  	0.002481 
3932.855824  	0.003151 
3934.784640  	0.003100 
3936.713456  	0.002887 
3938.642272  	0.002708 
3940.571088  	0.002397 
3942.499904  	0.002905 
3944.428720  	0.003259 
3946.357536  	0.002802 
3948.286352  	0.002723 
3950.215168  	0.002599 
3952.143984  	0.002618 
3954.072800  	0.002681 
3956.001616  	0.002593 
3957.930432  	0.002613 
3959.859248  	0.002794 
3961.788064  	0.002858 
3963.716880  	0.002834 
3965.645696  	0.002618 
3967.574512  	0.002752 
3969.503328  	0.002853 
3971.432144  	0.002692 
3973.360960  	0.002611 
3975.289776  	0.002759 
3977.218592  	0.002851 
3979.147408  	0.002886 
3981.076224  	0.002640 
3983.005040  	0.002523 
3984.933856  	0.002647 
3986.862672  	0.002791 
3988.791488  	0.002816 
3990.720304  	0.002821 
3992.649120  	0.002879 
3994.577936  	0.002626 
3996.506752  	0.002474 
3998.435568  	0.002658 
4000.364384  	0.002752 