##TITLE=No Description
##DATA TYPE=INFRARED SPECTRUM
##XUNITS=1/CM
##YUNITS=Abs
399.264912  	0.563545 
401.193728  	0.580248 
403.122544  	0.583260 
405.051360  	0.561320 
406.980176  	0.559274 
408.908992  	0.550099 
410.837808  	0.549773 
412.766624  	0.547338 
414.695440  	0.549301 
416.624256  	0.544498 
418.553072  	0.540808 
420.481888  	0.534892 
422.410704  	0.542215 
424.339520  	0.534929 
426.268336  	0.532905 
428.197152  	0.529461 
430.125968  	0.526976 
432.054784  	0.518504 
433.983600  	0.518238 
435.912416  	0.515940 
437.841232  	0.517252 
439.770048  	0.515888 
441.698864  	0.510289 
443.627680  	0.503039 
445.556496  	0.505997 
447.485312  	0.509560 
449.414128  	0.507946 
451.342944  	0.502892 
453.271760  	0.502774 
455.200576  	0.495721 
457.129392  	0.492744 
459.058208  	0.488282 
460.987024  	0.490118 
462.915840  	0.492514 
464.844656  	0.495292 
466.773472  	0.497528 
468.702288  	0.501067 
470.631104  	0.495820 
472.559920  	0.496061 
474.488736  	0.491773 
476.417552  	0.492532 
478.346368  	0.492634 
480.275184  	0.490927 
482.204000  	0.487067 
484.132816  	0.488323 
486.061632  	0.485916 
487.990448  	0.489733 
489.919264  	0.489076 
491.848080  	0.488045 
493.776896  	0.481994 
495.705712  	0.480596 
497.634528  	0.478257 
499.563344  	0.476108 
501.492160  	0.474095 
503.420976  	0.477032 
505.349792  	0.473885 
507.278608  	0.475081 
509.207424  	0.476399 
511.136240  	0.479009 
513.065056  	0.479787 
514.993872  	0.478585 
516.922688  	0.475558 
518.851504  	0.476828 
520.780320  	0.477510 
522.709136  	0.477990 
524.637952  	0.473526 
526.566768  	0.470601 
528.495584  	0.468602 
530.424400  	0.466062 
532.353216  	0.462682 
534.282032  	0.460969 
536.210848  	0.457508 
538.139664  	0.455016 
540.068480  	0.451145 
541.997296  	0.447326 
543.926112  	0.443226 
545.854928  	0.441914 
547.783744  	0.438096 
549.712560  	0.433762 
551.641376  	0.429315 
553.570192  	0.428019 
555.499008  	0.425042 
557.427824  	0.422959 
559.356640  	0.419620 
561.285456  	0.416027 
563.214272  	0.412453 
565.143088  	0.410031 
567.071904  	0.406231 
569.000720  	0.403537 
570.929536  	0.400247 
572.858352  	0.396624 
574.787168  	0.393678 
576.715984  	0.392150 
578.644800  	0.388734 
580.573616  	0.385273 
582.502432  	0.381977 
584.431248  	0.379933 
586.360064  	0.377345 
588.288880  	0.375713 
590.217696  	0.373654 
592.146512  	0.372010 
594.075328  	0.369115 
596.004144  	0.366836 
597.932960  	0.365541 
599.861776  	0.365257 
601.790592  	0.364442 
603.719408  	0.363545 
605.648224  	0.361416 
607.577040  	0.360109 
609.505856  	0.359117 
611.434672  	0.357928 
613.363488  	0.356038 
615.292304  	0.354196 
617.221120  	0.351786 
619.149936  	0.350356 
621.078752  	0.348481 
623.007568  	0.346574 
624.936384  	0.345037 
626.865200  	0.343870 
628.794016  	0.340986 
630.722832  	0.339284 
632.651648  	0.338549 
634.580464  	0.338168 
636.509280  	0.338205 
638.438096  	0.337287 
640.366912  	0.335624 
642.295728  	0.334205 
644.224544  	0.332039 
646.153360  	0.328979 
648.082176  	0.325351 
650.010992  	0.322202 
651.939808  	0.318739 
653.868624  	0.316044 
655.797440  	0.312569 
657.726256  	0.309623 
659.655072  	0.306285 
661.583888  	0.302963 
663.512704  	0.299631 
665.441520  	0.297155 
667.370336  	0.293874 
669.299152  	0.290520 
671.227968  	0.289136 
673.156784  	0.286979 
675.085600  	0.284440 
677.014416  	0.282532 
678.943232  	0.280874 
680.872048  	0.279264 
682.800864  	0.277961 
684.729680  	0.276862 
686.658496  	0.274685 
688.587312  	0.272807 
690.516128  	0.270390 
692.444944  	0.268878 
694.373760  	0.267412 
696.302576  	0.265837 
698.231392  	0.263250 
700.160208  	0.260652 
702.089024  	0.258401 
704.017840  	0.256989 
705.946656  	0.254539 
707.875472  	0.251840 
709.804288  	0.249532 
711.733104  	0.248050 
713.661920  	0.246646 
715.590736  	0.245802 
717.519552  	0.245202 
719.448368  	0.244835 
721.377184  	0.244952 
723.306000  	0.245115 
725.234816  	0.244804 
727.163632  	0.243516 
729.092448  	0.240968 
731.021264  	0.238642 
732.950080  	0.236152 
734.878896  	0.233511 
736.807712  	0.231033 
738.736528  	0.229692 
740.665344  	0.228399 
742.594160  	0.226971 
744.522976  	0.225494 
746.451792  	0.224195 
748.380608  	0.222760 
750.309424  	0.221701 
752.238240  	0.220852 
754.167056  	0.220226 
756.095872  	0.219254 
758.024688  	0.218071 
759.953504  	0.216838 
761.882320  	0.216290 
763.811136  	0.216118 
765.739952  	0.215447 
767.668768  	0.214124 
769.597584  	0.212872 
771.526400  	0.212389 
773.455216  	0.213222 
775.384032  	0.214390 
777.312848  	0.216513 
779.241664  	0.219099 
781.170480  	0.219663 
783.099296  	0.216973 
785.028112  	0.212603 
786.956928  	0.207506 
788.885744  	0.203126 
790.814560  	0.199955 
792.743376  	0.197850 
794.672192  	0.195739 
796.601008  	0.194362 
798.529824  	0.192687 
800.458640  	0.189882 
802.387456  	0.186824 
804.316272  	0.185089 
806.245088  	0.184323 
808.173904  	0.183754 
810.102720  	0.183332 
812.031536  	0.182899 
813.960352  	0.181906 
815.889168  	0.181087 
817.817984  	0.180576 
819.746800  	0.179864 
821.675616  	0.179085 
823.604432  	0.178473 
825.533248  	0.177461 
827.462064  	0.176169 
829.390880  	0.175004 
831.319696  	0.173910 
833.248512  	0.172413 
835.177328  	0.170784 
837.106144  	0.168755 
839.034960  	0.166536 
840.963776  	0.164131 
842.892592  	0.161622 
844.821408  	0.159056 
846.750224  	0.156726 
848.679040  	0.154527 
850.607856  	0.152298 
852.536672  	0.150578 
854.465488  	0.148622 
856.394304  	0.146988 
858.323120  	0.145813 
860.251936  	0.144164 
862.180752  	0.142170 
864.109568  	0.140620 
866.038384  	0.139209 
867.967200  	0.137767 
869.896016  	0.136516 
871.824832  	0.135246 
873.753648  	0.134232 
875.682464  	0.133815 
877.611280  	0.133552 
879.540096  	0.133509 
881.468912  	0.134112 
883.397728  	0.134217 
885.326544  	0.134030 
887.255360  	0.133758 
889.184176  	0.133102 
891.112992  	0.132049 
893.041808  	0.130712 
894.970624  	0.128933 
896.899440  	0.126732 
898.828256  	0.123904 
900.757072  	0.121132 
902.685888  	0.119114 
904.614704  	0.117675 
906.543520  	0.116900 
908.472336  	0.117276 
910.401152  	0.118540 
912.329968  	0.120456 
914.258784  	0.122620 
916.187600  	0.124448 
918.116416  	0.125530 
920.045232  	0.126043 
921.974048  	0.125690 
923.902864  	0.124845 
925.831680  	0.123883 
927.760496  	0.122933 
929.689312  	0.121993 
931.618128  	0.121663 
933.546944  	0.121553 
935.475760  	0.121374 
937.404576  	0.121316 
939.333392  	0.121753 
941.262208  	0.122641 
943.191024  	0.124243 
945.119840  	0.126748 
947.048656  	0.129729 
948.977472  	0.133524 
950.906288  	0.138018 
952.835104  	0.142796 
954.763920  	0.147507 
956.692736  	0.151876 
958.621552  	0.155777 
960.550368  	0.158466 
962.479184  	0.159730 
964.408000  	0.158838 
966.336816  	0.156255 
968.265632  	0.151709 
970.194448  	0.145860 
972.123264  	0.139146 
974.052080  	0.131888 
975.980896  	0.124763 
977.909712  	0.117958 
979.838528  	0.112167 
981.767344  	0.107476 
983.696160  	0.104038 
985.624976  	0.102226 
987.553792  	0.102159 
989.482608  	0.103435 
991.411424  	0.106042 
993.340240  	0.110017 
995.269056  	0.115170 
997.197872  	0.120530 
999.126688  	0.125485 
1001.055504  	0.130657 
1002.984320  	0.135718 
1004.913136  	0.140337 
1006.841952  	0.144277 
1008.770768  	0.147798 
1010.699584  	0.150466 
1012.628400  	0.152171 
1014.557216  	0.153080 
1016.486032  	0.153483 
1018.414848  	0.153663 
1020.343664  	0.153942 
1022.272480  	0.154157 
1024.201296  	0.154020 
1026.130112  	0.152995 
1028.058928  	0.152904 
1029.987744  	0.154074 
1031.916560  	0.155173 
1033.845376  	0.156385 
1035.774192  	0.157700 
1037.703008  	0.159750 
1039.631824  	0.163663 
1041.560640  	0.168426 
1043.489456  	0.174583 
1045.418272  	0.182235 
1047.347088  	0.191645 
1049.275904  	0.202098 
1051.204720  	0.212715 
1053.133536  	0.222000 
1055.062352  	0.229484 
1056.991168  	0.234429 
1058.919984  	0.238193 
1060.848800  	0.239791 
1062.777616  	0.239499 
1064.706432  	0.236617 
1066.635248  	0.233292 
1068.564064  	0.230397 
1070.492880  	0.226468 
1072.421696  	0.221093 
1074.350512  	0.216325 
1076.279328  	0.212477 
1078.208144  	0.209451 
1080.136960  	0.206912 
1082.065776  	0.204827 
1083.994592  	0.202710 
1085.923408  	0.200929 
1087.852224  	0.198568 
1089.781040  	0.195952 
1091.709856  	0.192363 
1093.638672  	0.187366 
1095.567488  	0.180940 
1097.496304  	0.174252 
1099.425120  	0.166976 
1101.353936  	0.159462 
1103.282752  	0.151941 
1105.211568  	0.144409 
1107.140384  	0.136953 
1109.069200  	0.129477 
1110.998016  	0.122596 
1112.926832  	0.116288 
1114.855648  	0.110077 
1116.784464  	0.103998 
1118.713280  	0.098649 
1120.642096  	0.093903 
1122.570912  	0.089192 
1124.499728  	0.084757 
1126.428544  	0.080445 
1128.357360  	0.076209 
1130.286176  	0.072283 
1132.214992  	0.069061 
1134.143808  	0.066312 
1136.072624  	0.063654 
1138.001440  	0.061055 
1139.930256  	0.058557 
1141.859072  	0.056549 
1143.787888  	0.054472 
1145.716704  	0.052658 
1147.645520  	0.051592 
1149.574336  	0.050852 
1151.503152  	0.050178 
1153.431968  	0.049914 
1155.360784  	0.049872 
1157.289600  	0.050126 
1159.218416  	0.050671 
1161.147232  	0.051560 
1163.076048  	0.052348 
1165.004864  	0.053425 
1166.933680  	0.054610 
1168.862496  	0.056047 
1170.791312  	0.057683 
1172.720128  	0.059311 
1174.648944  	0.060965 
1176.577760  	0.062845 
1178.506576  	0.064701 
1180.435392  	0.066623 
1182.364208  	0.068518 
1184.293024  	0.070654 
1186.221840  	0.072954 
1188.150656  	0.075359 
1190.079472  	0.078163 
1192.008288  	0.081333 
1193.937104  	0.084878 
1195.865920  	0.089075 
1197.794736  	0.093380 
1199.723552  	0.098177 
1201.652368  	0.103208 
1203.581184  	0.108214 
1205.510000  	0.113108 
1207.438816  	0.117933 
1209.367632  	0.122424 
1211.296448  	0.126574 
1213.225264  	0.130407 
1215.154080  	0.133832 
1217.082896  	0.136800 
1219.011712  	0.138917 
1220.940528  	0.140914 
1222.869344  	0.142393 
1224.798160  	0.143249 
1226.726976  	0.143708 
1228.655792  	0.143687 
1230.584608  	0.143375 
1232.513424  	0.142720 
1234.442240  	0.141147 
1236.371056  	0.139006 
1238.299872  	0.136375 
1240.228688  	0.132552 
1242.157504  	0.128214 
1244.086320  	0.124027 
1246.015136  	0.118962 
1247.943952  	0.113680 
1249.872768  	0.108486 
1251.801584  	0.103563 
1253.730400  	0.098683 
1255.659216  	0.093922 
1257.588032  	0.089377 
1259.516848  	0.085179 
1261.445664  	0.081285 
1263.374480  	0.077840 
1265.303296  	0.074724 
1267.232112  	0.072114 
1269.160928  	0.070335 
1271.089744  	0.069265 
1273.018560  	0.068881 
1274.947376  	0.068946 
1276.876192  	0.068925 
1278.805008  	0.068453 
1280.733824  	0.067171 
1282.662640  	0.064948 
1284.591456  	0.061959 
1286.520272  	0.058866 
1288.449088  	0.056326 
1290.377904  	0.054212 
1292.306720  	0.052526 
1294.235536  	0.050561 
1296.164352  	0.048037 
1298.093168  	0.045225 
1300.021984  	0.042470 
1301.950800  	0.039927 
1303.879616  	0.037898 
1305.808432  	0.036303 
1307.737248  	0.035131 
1309.666064  	0.034192 
1311.594880  	0.033798 
1313.523696  	0.033725 
1315.452512  	0.033806 
1317.381328  	0.034138 
1319.310144  	0.034696 
1321.238960  	0.035284 
1323.167776  	0.035881 
1325.096592  	0.036219 
1327.025408  	0.036225 
1328.954224  	0.035796 
1330.883040  	0.035153 
1332.811856  	0.034295 
1334.740672  	0.033587 
1336.669488  	0.032962 
1338.598304  	0.032787 
1340.527120  	0.032323 
1342.455936  	0.031475 
1344.384752  	0.031362 
1346.313568  	0.031939 
1348.242384  	0.032914 
1350.171200  	0.034263 
1352.100016  	0.035701 
1354.028832  	0.037216 
1355.957648  	0.038800 
1357.886464  	0.040254 
1359.815280  	0.041480 
1361.744096  	0.042965 
1363.672912  	0.044201 
1365.601728  	0.044540 
1367.530544  	0.044738 
1369.459360  	0.044803 
1371.388176  	0.044147 
1373.316992  	0.043118 
1375.245808  	0.041850 
1377.174624  	0.040496 
1379.103440  	0.038906 
1381.032256  	0.037428 
1382.961072  	0.036341 
1384.889888  	0.035685 
1386.818704  	0.035408 
1388.747520  	0.034734 
1390.676336  	0.033385 
1392.605152  	0.031695 
1394.533968  	0.031089 
1396.462784  	0.032328 
1398.391600  	0.032776 
1400.320416  	0.032934 
1402.249232  	0.033122 
1404.178048  	0.034090 
1406.106864  	0.035190 
1408.035680  	0.036452 
1409.964496  	0.037909 
1411.893312  	0.039643 
1413.822128  	0.041233 
1415.750944  	0.042769 
1417.679760  	0.043392 
1419.608576  	0.043346 
1421.537392  	0.043104 
1423.466208  	0.042753 
1425.395024  	0.041891 
1427.323840  	0.040594 
1429.252656  	0.039189 
1431.181472  	0.038389 
1433.110288  	0.038015 
1435.039104  	0.037767 
1436.967920  	0.038079 
1438.896736  	0.038557 
1440.825552  	0.038758 
1442.754368  	0.039022 
1444.683184  	0.038853 
1446.612000  	0.038723 
1448.540816  	0.038811 
1450.469632  	0.038973 
1452.398448  	0.038951 
1454.327264  	0.038803 
1456.256080  	0.038537 
1458.184896  	0.039078 
1460.113712  	0.039784 
1462.042528  	0.040011 
1463.971344  	0.039912 
1465.900160  	0.041560 
1467.828976  	0.043511 
1469.757792  	0.044961 
1471.686608  	0.046593 
1473.615424  	0.050368 
1475.544240  	0.053129 
1477.473056  	0.054940 
1479.401872  	0.055484 
1481.330688  	0.055685 
1483.259504  	0.055458 
1485.188320  	0.054563 
1487.117136  	0.052789 
1489.045952  	0.051192 
1490.974768  	0.049150 
1492.903584  	0.046875 
1494.832400  	0.044172 
1496.761216  	0.041352 
1498.690032  	0.039299 
1500.618848  	0.038270 
1502.547664  	0.036908 
1504.476480  	0.034469 
1506.405296  	0.032796 
1508.334112  	0.034568 
1510.262928  	0.034312 
1512.191744  	0.033280 
1514.120560  	0.032231 
1516.049376  	0.031853 
1517.978192  	0.031962 
1519.907008  	0.032155 
1521.835824  	0.033405 
1523.764640  	0.035662 
1525.693456  	0.037875 
1527.622272  	0.039952 
1529.551088  	0.041182 
1531.479904  	0.041557 
1533.408720  	0.041129 
1535.337536  	0.041003 
1537.266352  	0.038959 
1539.195168  	0.035052 
1541.123984  	0.033883 
1543.052800  	0.035200 
1544.981616  	0.035354 
1546.910432  	0.034608 
1548.839248  	0.033989 
1550.768064  	0.034089 
1552.696880  	0.033584 
1554.625696  	0.033522 
1556.554512  	0.032386 
1558.483328  	0.031243 
1560.412144  	0.035961 
1562.340960  	0.038555 
1564.269776  	0.039904 
1566.198592  	0.042388 
1568.127408  	0.044050 
1570.056224  	0.047463 
1571.985040  	0.050901 
1573.913856  	0.051949 
1575.842672  	0.052269 
1577.771488  	0.054694 
1579.700304  	0.055362 
1581.629120  	0.055449 
1583.557936  	0.055781 
1585.486752  	0.057107 
1587.415568  	0.059097 
1589.344384  	0.062116 
1591.273200  	0.065554 
1593.202016  	0.069457 
1595.130832  	0.073252 
1597.059648  	0.076980 
1598.988464  	0.079732 
1600.917280  	0.081920 
1602.846096  	0.083026 
1604.774912  	0.083637 
1606.703728  	0.083310 
1608.632544  	0.082953 
1610.561360  	0.082654 
1612.490176  	0.082669 
1614.418992  	0.081906 
1616.347808  	0.082309 
1618.276624  	0.085527 
1620.205440  	0.088891 
1622.134256  	0.091627 
1624.063072  	0.097085 
1625.991888  	0.102073 
1627.920704  	0.107396 
1629.849520  	0.113550 
1631.778336  	0.118617 
1633.707152  	0.121600 
1635.635968  	0.126232 
1637.564784  	0.132728 
1639.493600  	0.136716 
1641.422416  	0.139512 
1643.351232  	0.141124 
1645.280048  	0.140977 
1647.208864  	0.142028 
1649.137680  	0.143325 
1651.066496  	0.141971 
1652.995312  	0.139694 
1654.924128  	0.142472 
1656.852944  	0.142429 
1658.781760  	0.141670 
1660.710576  	0.140370 
1662.639392  	0.139352 
1664.568208  	0.139169 
1666.497024  	0.138516 
1668.425840  	0.136976 
1670.354656  	0.136709 
1672.283472  	0.136980 
1674.212288  	0.136636 
1676.141104  	0.137645 
1678.069920  	0.138903 
1679.998736  	0.139584 
1681.927552  	0.139144 
1683.856368  	0.138200 
1685.785184  	0.140623 
1687.714000  	0.140854 
1689.642816  	0.139979 
1691.571632  	0.138384 
1693.500448  	0.136042 
1695.429264  	0.132468 
1697.358080  	0.129297 
1699.286896  	0.125459 
1701.215712  	0.122005 
1703.144528  	0.119279 
1705.073344  	0.115135 
1707.002160  	0.110964 
1708.930976  	0.107248 
1710.859792  	0.102802 
1712.788608  	0.097653 
1714.717424  	0.092114 
1716.646240  	0.086205 
1718.575056  	0.080838 
1720.503872  	0.076474 
1722.432688  	0.072126 
1724.361504  	0.066928 
1726.290320  	0.062164 
1728.219136  	0.057487 
1730.147952  	0.053001 
1732.076768  	0.048342 
1734.005584  	0.043308 
1735.934400  	0.038930 
1737.863216  	0.035728 
1739.792032  	0.031327 
1741.720848  	0.028553 
1743.649664  	0.025998 
1745.578480  	0.023144 
1747.507296  	0.020381 
1749.436112  	0.018838 
1751.364928  	0.017912 
1753.293744  	0.016850 
1755.222560  	0.015299 
1757.151376  	0.014584 
1759.080192  	0.013563 
1761.009008  	0.012817 
1762.937824  	0.012388 
1764.866640  	0.012192 
1766.795456  	0.011615 
1768.724272  	0.011200 
1770.653088  	0.009582 
1772.581904  	0.009150 
1774.510720  	0.009954 
1776.439536  	0.010349 
1778.368352  	0.010012 
1780.297168  	0.010049 
1782.225984  	0.009877 
1784.154800  	0.009699 
1786.083616  	0.009627 
1788.012432  	0.009389 
1789.941248  	0.008656 
1791.870064  	0.008348 
1793.798880  	0.008405 
1795.727696  	0.008796 
1797.656512  	0.008340 
1799.585328  	0.008128 
1801.514144  	0.008415 
1803.442960  	0.008295 
1805.371776  	0.007832 
1807.300592  	0.007813 
1809.229408  	0.007313 
1811.158224  	0.007373 
1813.087040  	0.007387 
1815.015856  	0.007210 
1816.944672  	0.007198 
1818.873488  	0.007447 
1820.802304  	0.007377 
1822.731120  	0.007322 
1824.659936  	0.007273 
1826.588752  	0.007459 
1828.517568  	0.006787 
1830.446384  	0.007098 
1832.375200  	0.007443 
1834.304016  	0.007341 
1836.232832  	0.007219 
1838.161648  	0.007539 
1840.090464  	0.007277 
1842.019280  	0.006901 
1843.948096  	0.006586 
1845.876912  	0.007078 
1847.805728  	0.007226 
1849.734544  	0.007396 
1851.663360  	0.007119 
1853.592176  	0.007160 
1855.520992  	0.007131 
1857.449808  	0.007476 
1859.378624  	0.007415 
1861.307440  	0.007261 
1863.236256  	0.006862 
1865.165072  	0.006734 
1867.093888  	0.006544 
1869.022704  	0.007107 
1870.951520  	0.007129 
1872.880336  	0.007148 
1874.809152  	0.006864 
1876.737968  	0.006888 
1878.666784  	0.006685 
1880.595600  	0.006825 
1882.524416  	0.006836 
1884.453232  	0.006930 
1886.382048  	0.006573 
1888.310864  	0.006655 
1890.239680  	0.007103 
1892.168496  	0.007282 
1894.097312  	0.006676 
1896.026128  	0.006746 
1897.954944  	0.006569 
1899.883760  	0.006530 
1901.812576  	0.006363 
1903.741392  	0.006574 
1905.670208  	0.006550 
1907.599024  	0.006724 
1909.527840  	0.006627 
1911.456656  	0.006872 
1913.385472  	0.006804 
1915.314288  	0.006954 
1917.243104  	0.006954 
1919.171920  	0.006867 
1921.100736  	0.006642 
1923.029552  	0.007263 
1924.958368  	0.006675 
1926.887184  	0.006691 
1928.816000  	0.006335 
1930.744816  	0.006030 
1932.673632  	0.005686 
1934.602448  	0.006272 
1936.531264  	0.006651 
1938.460080  	0.006621 
1940.388896  	0.006385 
1942.317712  	0.006771 
1944.246528  	0.006449 
1946.175344  	0.006831 
1948.104160  	0.006050 
1950.032976  	0.006002 
1951.961792  	0.006824 
1953.890608  	0.007280 
1955.819424  	0.006513 
1957.748240  	0.006742 
1959.677056  	0.007211 
1961.605872  	0.007050 
1963.534688  	0.005973 
1965.463504  	0.007336 
1967.392320  	0.007169 
1969.321136  	0.006750 
1971.249952  	0.006662 
1973.178768  	0.007437 
1975.107584  	0.005927 
1977.036400  	0.005541 
1978.965216  	0.008108 
1980.894032  	0.008955 
1982.822848  	0.007001 
1984.751664  	0.006983 
1986.680480  	0.007463 
1988.609296  	0.007583 
1990.538112  	0.007175 
1992.466928  	0.007671 
1994.395744  	0.007374 
1996.324560  	0.007460 
1998.253376  	0.007752 
2000.182192  	0.007880 
2002.111008  	0.007812 
2004.039824  	0.007592 
2005.968640  	0.007181 
2007.897456  	0.007865 
2009.826272  	0.007086 
2011.755088  	0.006252 
2013.683904  	0.006279 
2015.612720  	0.007145 
2017.541536  	0.007174 
2019.470352  	0.007260 
2021.399168  	0.006266 
2023.327984  	0.007199 
2025.256800  	0.007600 
2027.185616  	0.007065 
2029.114432  	0.006693 
2031.043248  	0.007841 
2032.972064  	0.007540 
2034.900880  	0.007888 
2036.829696  	0.008144 
2038.758512  	0.008113 
2040.687328  	0.007465 
2042.616144  	0.007380 
2044.544960  	0.007748 
2046.473776  	0.008437 
2048.402592  	0.008217 
2050.331408  	0.008871 
2052.260224  	0.008244 
2054.189040  	0.008239 
2056.117856  	0.008106 
2058.046672  	0.007879 
2059.975488  	0.007613 
2061.904304  	0.007740 
2063.833120  	0.008121 
2065.761936  	0.008441 
2067.690752  	0.008082 
2069.619568  	0.008017 
2071.548384  	0.007044 
2073.477200  	0.006889 
2075.406016  	0.007733 
2077.334832  	0.008020 
2079.263648  	0.006955 
2081.192464  	0.006759 
2083.121280  	0.007480 
2085.050096  	0.007617 
2086.978912  	0.006823 
2088.907728  	0.006644 
2090.836544  	0.006436 
2092.765360  	0.006472 
2094.694176  	0.006861 
2096.622992  	0.007080 
2098.551808  	0.006607 
2100.480624  	0.006736 
2102.409440  	0.006603 
2104.338256  	0.007010 
2106.267072  	0.007197 
2108.195888  	0.006985 
2110.124704  	0.007236 
2112.053520  	0.007836 
2113.982336  	0.007292 
2115.911152  	0.007237 
2117.839968  	0.007014 
2119.768784  	0.006539 
2121.697600  	0.006338 
2123.626416  	0.006054 
2125.555232  	0.005800 
2127.484048  	0.006190 
2129.412864  	0.005817 
2131.341680  	0.005070 
2133.270496  	0.005568 
2135.199312  	0.006467 
2137.128128  	0.006707 
2139.056944  	0.006572 
2140.985760  	0.005893 
2142.914576  	0.006781 
2144.843392  	0.006675 
2146.772208  	0.007066 
2148.701024  	0.007991 
2150.629840  	0.007470 
2152.558656  	0.005895 
2154.487472  	0.004914 
2156.416288  	0.004391 
2158.345104  	0.006416 
2160.273920  	0.009342 
2162.202736  	0.010544 
2164.131552  	0.009790 
2166.060368  	0.010353 
2167.989184  	0.009266 
2169.918000  	0.008114 
2171.846816  	0.008203 
2173.775632  	0.008867 
2175.704448  	0.009079 
2177.633264  	0.009400 
2179.562080  	0.009182 
2181.490896  	0.008511 
2183.419712  	0.008046 
2185.348528  	0.009169 
2187.277344  	0.008740 
2189.206160  	0.008635 
2191.134976  	0.009928 
2193.063792  	0.011107 
2194.992608  	0.010396 
2196.921424  	0.008922 
2198.850240  	0.009009 
2200.779056  	0.008883 
2202.707872  	0.008452 
2204.636688  	0.008664 
2206.565504  	0.008368 
2208.494320  	0.008173 
2210.423136  	0.007456 
2212.351952  	0.007886 
2214.280768  	0.008290 
2216.209584  	0.007951 
2218.138400  	0.008040 
2220.067216  	0.008461 
2221.996032  	0.007694 
2223.924848  	0.006636 
2225.853664  	0.007251 
2227.782480  	0.008450 
2229.711296  	0.008439 
2231.640112  	0.008127 
2233.568928  	0.007815 
2235.497744  	0.008155 
2237.426560  	0.007946 
2239.355376  	0.007527 
2241.284192  	0.007061 
2243.213008  	0.007194 
2245.141824  	0.007486 
2247.070640  	0.007230 
2248.999456  	0.006792 
2250.928272  	0.007202 
2252.857088  	0.007088 
2254.785904  	0.006958 
2256.714720  	0.007459 
2258.643536  	0.008219 
2260.572352  	0.008017 
2262.501168  	0.007819 
2264.429984  	0.007767 
2266.358800  	0.008224 
2268.287616  	0.008313 
2270.216432  	0.008185 
2272.145248  	0.007896 
2274.074064  	0.007996 
2276.002880  	0.007924 
2277.931696  	0.008344 
2279.860512  	0.008784 
2281.789328  	0.008966 
2283.718144  	0.008755 
2285.646960  	0.008822 
2287.575776  	0.008961 
2289.504592  	0.008711 
2291.433408  	0.008241 
2293.362224  	0.008261 
2295.291040  	0.008699 
2297.219856  	0.008992 
2299.148672  	0.008981 
2301.077488  	0.008976 
2303.006304  	0.009004 
2304.935120  	0.009066 
2306.863936  	0.008883 
2308.792752  	0.008903 
2310.721568  	0.009028 
2312.650384  	0.008765 
2314.579200  	0.008317 
2316.508016  	0.008107 
2318.436832  	0.007707 
2320.365648  	0.007569 
2322.294464  	0.007188 
2324.223280  	0.006096 
2326.152096  	0.004404 
2328.080912  	0.003230 
2330.009728  	0.002576 
2331.938544  	0.002063 
2333.867360  	0.001049 
2335.796176  	0.000310 
2337.724992  	0.000203 
2339.653808  	0.000052 
2341.582624  	0.000056 
2343.511440  	0.001448 
2345.440256  	0.003199 
2347.369072  	0.005113 
2349.297888  	0.005317 
2351.226704  	0.003758 
2353.155520  	0.001702 
2355.084336  	-0.000172 
2357.013152  	-0.001663 
2358.941968  	-0.002584 
2360.870784  	-0.002994 
2362.799600  	-0.002198 
2364.728416  	-0.001109 
2366.657232  	-0.000181 
2368.586048  	0.000795 
2370.514864  	0.002818 
2372.443680  	0.004536 
2374.372496  	0.006100 
2376.301312  	0.007526 
2378.230128  	0.008461 
2380.158944  	0.008634 
2382.087760  	0.008623 
2384.016576  	0.008635 
2385.945392  	0.008596 
2387.874208  	0.008196 
2389.803024  	0.007980 
2391.731840  	0.007988 
2393.660656  	0.008141 
2395.589472  	0.008276 
2397.518288  	0.008411 
2399.447104  	0.008450 
2401.375920  	0.008361 
2403.304736  	0.008343 
2405.233552  	0.008415 
2407.162368  	0.008276 
2409.091184  	0.008243 
2411.020000  	0.008213 
2412.948816  	0.008484 
2414.877632  	0.008563 
2416.806448  	0.008623 
2418.735264  	0.008672 
2420.664080  	0.008562 
2422.592896  	0.008456 
2424.521712  	0.008540 
2426.450528  	0.008627 
2428.379344  	0.008667 
2430.308160  	0.008720 
2432.236976  	0.008926 
2434.165792  	0.009313 
2436.094608  	0.009669 
2438.023424  	0.009723 
2439.952240  	0.009613 
2441.881056  	0.009633 
2443.809872  	0.009638 
2445.738688  	0.009612 
2447.667504  	0.009802 
2449.596320  	0.009895 
2451.525136  	0.009866 
2453.453952  	0.009682 
2455.382768  	0.009803 
2457.311584  	0.010124 
2459.240400  	0.010127 
2461.169216  	0.009938 
2463.098032  	0.009905 
2465.026848  	0.009883 
2466.955664  	0.009800 
2468.884480  	0.009698 
2470.813296  	0.009871 
2472.742112  	0.009756 
2474.670928  	0.009883 
2476.599744  	0.010273 
2478.528560  	0.010265 
2480.457376  	0.010224 
2482.386192  	0.010323 
2484.315008  	0.010444 
2486.243824  	0.010446 
2488.172640  	0.010313 
2490.101456  	0.010388 
2492.030272  	0.010550 
2493.959088  	0.010537 
2495.887904  	0.010411 
2497.816720  	0.010554 
2499.745536  	0.010775 
2501.674352  	0.010964 
2503.603168  	0.010844 
2505.531984  	0.010722 
2507.460800  	0.010700 
2509.389616  	0.010810 
2511.318432  	0.010768 
2513.247248  	0.010777 
2515.176064  	0.010862 
2517.104880  	0.011189 
2519.033696  	0.011480 
2520.962512  	0.011492 
2522.891328  	0.011531 
2524.820144  	0.011495 
2526.748960  	0.011298 
2528.677776  	0.011467 
2530.606592  	0.011719 
2532.535408  	0.011785 
2534.464224  	0.011758 
2536.393040  	0.011753 
2538.321856  	0.011614 
2540.250672  	0.011788 
2542.179488  	0.011840 
2544.108304  	0.012057 
2546.037120  	0.012006 
2547.965936  	0.012191 
2549.894752  	0.012414 
2551.823568  	0.012301 
2553.752384  	0.012345 
2555.681200  	0.012512 
2557.610016  	0.012485 
2559.538832  	0.012495 
2561.467648  	0.012429 
2563.396464  	0.012684 
2565.325280  	0.013130 
2567.254096  	0.013204 
2569.182912  	0.012999 
2571.111728  	0.012815 
2573.040544  	0.012505 
2574.969360  	0.012671 
2576.898176  	0.013060 
2578.826992  	0.013350 
2580.755808  	0.013195 
2582.684624  	0.013083 
2584.613440  	0.012883 
2586.542256  	0.013174 
2588.471072  	0.013423 
2590.399888  	0.013390 
2592.328704  	0.013405 
2594.257520  	0.013536 
2596.186336  	0.013812 
2598.115152  	0.014062 
2600.043968  	0.013961 
2601.972784  	0.013842 
2603.901600  	0.013952 
2605.830416  	0.014142 
2607.759232  	0.014150 
2609.688048  	0.014228 
2611.616864  	0.014348 
2613.545680  	0.014328 
2615.474496  	0.014364 
2617.403312  	0.014465 
2619.332128  	0.014596 
2621.260944  	0.014717 
2623.189760  	0.014639 
2625.118576  	0.014678 
2627.047392  	0.014829 
2628.976208  	0.015052 
2630.905024  	0.015131 
2632.833840  	0.015332 
2634.762656  	0.015411 
2636.691472  	0.015357 
2638.620288  	0.015380 
2640.549104  	0.015406 
2642.477920  	0.015501 
2644.406736  	0.015600 
2646.335552  	0.015833 
2648.264368  	0.015968 
2650.193184  	0.015999 
2652.122000  	0.016181 
2654.050816  	0.016384 
2655.979632  	0.016254 
2657.908448  	0.016100 
2659.837264  	0.016143 
2661.766080  	0.016174 
2663.694896  	0.016187 
2665.623712  	0.016128 
2667.552528  	0.016150 
2669.481344  	0.016358 
2671.410160  	0.016590 
2673.338976  	0.016698 
2675.267792  	0.016836 
2677.196608  	0.016952 
2679.125424  	0.017067 
2681.054240  	0.017078 
2682.983056  	0.017097 
2684.911872  	0.017195 
2686.840688  	0.017333 
2688.769504  	0.017459 
2690.698320  	0.017537 
2692.627136  	0.017571 
2694.555952  	0.017527 
2696.484768  	0.017465 
2698.413584  	0.017668 
2700.342400  	0.017851 
2702.271216  	0.017951 
2704.200032  	0.018076 
2706.128848  	0.018183 
2708.057664  	0.018274 
2709.986480  	0.018319 
2711.915296  	0.018424 
2713.844112  	0.018569 
2715.772928  	0.018759 
2717.701744  	0.018854 
2719.630560  	0.018765 
2721.559376  	0.018835 
2723.488192  	0.018996 
2725.417008  	0.019181 
2727.345824  	0.019269 
2729.274640  	0.019199 
2731.203456  	0.019214 
2733.132272  	0.019337 
2735.061088  	0.019516 
2736.989904  	0.019596 
2738.918720  	0.019583 
2740.847536  	0.019617 
2742.776352  	0.019719 
2744.705168  	0.019834 
2746.633984  	0.019876 
2748.562800  	0.019913 
2750.491616  	0.020104 
2752.420432  	0.020100 
2754.349248  	0.020093 
2756.278064  	0.020194 
2758.206880  	0.020256 
2760.135696  	0.020440 
2762.064512  	0.020467 
2763.993328  	0.020463 
2765.922144  	0.020611 
2767.850960  	0.020620 
2769.779776  	0.020607 
2771.708592  	0.020616 
2773.637408  	0.020544 
2775.566224  	0.020658 
2777.495040  	0.020769 
2779.423856  	0.020849 
2781.352672  	0.020931 
2783.281488  	0.021066 
2785.210304  	0.021115 
2787.139120  	0.021277 
2789.067936  	0.021357 
2790.996752  	0.021329 
2792.925568  	0.021491 
2794.854384  	0.021729 
2796.783200  	0.021819 
2798.712016  	0.021686 
2800.640832  	0.021740 
2802.569648  	0.022056 
2804.498464  	0.022189 
2806.427280  	0.022151 
2808.356096  	0.022182 
2810.284912  	0.022324 
2812.213728  	0.022300 
2814.142544  	0.022332 
2816.071360  	0.022502 
2818.000176  	0.022527 
2819.928992  	0.022408 
2821.857808  	0.022401 
2823.786624  	0.022411 
2825.715440  	0.022435 
2827.644256  	0.022320 
2829.573072  	0.022336 
2831.501888  	0.022261 
2833.430704  	0.022180 
2835.359520  	0.022121 
2837.288336  	0.021990 
2839.217152  	0.021869 
2841.145968  	0.021785 
2843.074784  	0.021661 
2845.003600  	0.021585 
2846.932416  	0.021581 
2848.861232  	0.021421 
2850.790048  	0.021248 
2852.718864  	0.021191 
2854.647680  	0.021077 
2856.576496  	0.021099 
2858.505312  	0.020993 
2860.434128  	0.020867 
2862.362944  	0.020751 
2864.291760  	0.020483 
2866.220576  	0.020227 
2868.149392  	0.020352 
2870.078208  	0.020629 
2872.007024  	0.020758 
2873.935840  	0.020930 
2875.864656  	0.021194 
2877.793472  	0.021391 
2879.722288  	0.021471 
2881.651104  	0.021507 
2883.579920  	0.021508 
2885.508736  	0.021613 
2887.437552  	0.021773 
2889.366368  	0.021837 
2891.295184  	0.021840 
2893.224000  	0.021856 
2895.152816  	0.021958 
2897.081632  	0.021643 
2899.010448  	0.021003 
2900.939264  	0.020744 
2902.868080  	0.021232 
2904.796896  	0.021769 
2906.725712  	0.022112 
2908.654528  	0.022339 
2910.583344  	0.022542 
2912.512160  	0.022994 
2914.440976  	0.023570 
2916.369792  	0.023969 
2918.298608  	0.024341 
2920.227424  	0.024758 
2922.156240  	0.025228 
2924.085056  	0.025734 
2926.013872  	0.026374 
2927.942688  	0.027137 
2929.871504  	0.027870 
2931.800320  	0.028367 
2933.729136  	0.028762 
2935.657952  	0.029134 
2937.586768  	0.029420 
2939.515584  	0.029500 
2941.444400  	0.029549 
2943.373216  	0.029729 
2945.302032  	0.029833 
2947.230848  	0.029797 
2949.159664  	0.029672 
2951.088480  	0.029435 
2953.017296  	0.029270 
2954.946112  	0.028956 
2956.874928  	0.028586 
2958.803744  	0.028276 
2960.732560  	0.027964 
2962.661376  	0.027739 
2964.590192  	0.027400 
2966.519008  	0.026952 
2968.447824  	0.026513 
2970.376640  	0.026193 
2972.305456  	0.025940 
2974.234272  	0.025797 
2976.163088  	0.025656 
2978.091904  	0.025519 
2980.020720  	0.025384 
2981.949536  	0.025368 
2983.878352  	0.025170 
2985.807168  	0.024738 
2987.735984  	0.024543 
2989.664800  	0.024878 
2991.593616  	0.025932 
2993.522432  	0.026385 
2995.451248  	0.026541 
2997.380064  	0.026854 
2999.308880  	0.027222 
3001.237696  	0.027640 
3003.166512  	0.028089 
3005.095328  	0.028688 
3007.024144  	0.029323 
3008.952960  	0.029793 
3010.881776  	0.030237 
3012.810592  	0.030700 
3014.739408  	0.031064 
3016.668224  	0.031603 
3018.597040  	0.032102 
3020.525856  	0.032467 
3022.454672  	0.032910 
3024.383488  	0.033362 
3026.312304  	0.033767 
3028.241120  	0.034026 
3030.169936  	0.034109 
3032.098752  	0.034435 
3034.027568  	0.034635 
3035.956384  	0.034777 
3037.885200  	0.035135 
3039.814016  	0.035657 
3041.742832  	0.036034 
3043.671648  	0.036164 
3045.600464  	0.036215 
3047.529280  	0.036476 
3049.458096  	0.036666 
3051.386912  	0.036715 
3053.315728  	0.036937 
3055.244544  	0.037258 
3057.173360  	0.037753 
3059.102176  	0.038099 
3061.030992  	0.038289 
3062.959808  	0.038470 
3064.888624  	0.038769 
3066.817440  	0.039026 
3068.746256  	0.039222 
3070.675072  	0.039369 
3072.603888  	0.039758 
3074.532704  	0.040198 
3076.461520  	0.040527 
3078.390336  	0.040753 
3080.319152  	0.041084 
3082.247968  	0.041443 
3084.176784  	0.041707 
3086.105600  	0.041872 
3088.034416  	0.042032 
3089.963232  	0.042339 
3091.892048  	0.042682 
3093.820864  	0.042787 
3095.749680  	0.043036 
3097.678496  	0.043242 
3099.607312  	0.043475 
3101.536128  	0.043722 
3103.464944  	0.044010 
3105.393760  	0.044184 
3107.322576  	0.044444 
3109.251392  	0.044788 
3111.180208  	0.044976 
3113.109024  	0.045073 
3115.037840  	0.045154 
3116.966656  	0.045502 
3118.895472  	0.045808 
3120.824288  	0.045849 
3122.753104  	0.046074 
3124.681920  	0.046314 
3126.610736  	0.046400 
3128.539552  	0.046487 
3130.468368  	0.046561 
3132.397184  	0.046701 
3134.326000  	0.046732 
3136.254816  	0.046881 
3138.183632  	0.047197 
3140.112448  	0.047319 
3142.041264  	0.047327 
3143.970080  	0.047510 
3145.898896  	0.047679 
3147.827712  	0.047787 
3149.756528  	0.047984 
3151.685344  	0.048351 
3153.614160  	0.048747 
3155.542976  	0.048884 
3157.471792  	0.048945 
3159.400608  	0.049283 
3161.329424  	0.049527 
3163.258240  	0.049788 
3165.187056  	0.050056 
3167.115872  	0.050111 
3169.044688  	0.050239 
3170.973504  	0.050292 
3172.902320  	0.050278 
3174.831136  	0.050435 
3176.759952  	0.050693 
3178.688768  	0.050992 
3180.617584  	0.050995 
3182.546400  	0.050810 
3184.475216  	0.050997 
3186.404032  	0.051184 
3188.332848  	0.051262 
3190.261664  	0.051407 
3192.190480  	0.051492 
3194.119296  	0.051336 
3196.048112  	0.051278 
3197.976928  	0.051625 
3199.905744  	0.051686 
3201.834560  	0.051590 
3203.763376  	0.051537 
3205.692192  	0.051532 
3207.621008  	0.051523 
3209.549824  	0.051449 
3211.478640  	0.051322 
3213.407456  	0.051201 
3215.336272  	0.051194 
3217.265088  	0.050961 
3219.193904  	0.050752 
3221.122720  	0.050650 
3223.051536  	0.050508 
3224.980352  	0.050442 
3226.909168  	0.050223 
3228.837984  	0.049912 
3230.766800  	0.049853 
3232.695616  	0.050056 
3234.624432  	0.050161 
3236.553248  	0.050054 
3238.482064  	0.049828 
3240.410880  	0.049797 
3242.339696  	0.049677 
3244.268512  	0.049518 
3246.197328  	0.049494 
3248.126144  	0.049437 
3250.054960  	0.049532 
3251.983776  	0.049481 
3253.912592  	0.049453 
3255.841408  	0.049453 
3257.770224  	0.049414 
3259.699040  	0.049551 
3261.627856  	0.049661 
3263.556672  	0.049796 
3265.485488  	0.049655 
3267.414304  	0.049630 
3269.343120  	0.049773 
3271.271936  	0.050044 
3273.200752  	0.050304 
3275.129568  	0.050308 
3277.058384  	0.050192 
3278.987200  	0.050414 
3280.916016  	0.050544 
3282.844832  	0.050577 
3284.773648  	0.050617 
3286.702464  	0.050663 
3288.631280  	0.050827 
3290.560096  	0.050980 
3292.488912  	0.051112 
3294.417728  	0.051163 
3296.346544  	0.051293 
3298.275360  	0.051353 
3300.204176  	0.051541 
3302.132992  	0.051663 
3304.061808  	0.051878 
3305.990624  	0.052218 
3307.919440  	0.052298 
3309.848256  	0.052190 
3311.777072  	0.052258 
3313.705888  	0.052498 
3315.634704  	0.052691 
3317.563520  	0.052846 
3319.492336  	0.053022 
3321.421152  	0.053101 
3323.349968  	0.053364 
3325.278784  	0.053699 
3327.207600  	0.053701 
3329.136416  	0.053532 
3331.065232  	0.053348 
3332.994048  	0.053465 
3334.922864  	0.053543 
3336.851680  	0.053552 
3338.780496  	0.053488 
3340.709312  	0.053427 
3342.638128  	0.053321 
3344.566944  	0.053204 
3346.495760  	0.053231 
3348.424576  	0.053177 
3350.353392  	0.052858 
3352.282208  	0.052586 
3354.211024  	0.052622 
3356.139840  	0.052520 
3358.068656  	0.052191 
3359.997472  	0.051877 
3361.926288  	0.051697 
3363.855104  	0.051443 
3365.783920  	0.051272 
3367.712736  	0.051231 
3369.641552  	0.050884 
3371.570368  	0.050482 
3373.499184  	0.050264 
3375.428000  	0.050013 
3377.356816  	0.049672 
3379.285632  	0.049453 
3381.214448  	0.049293 
3383.143264  	0.049020 
3385.072080  	0.048988 
3387.000896  	0.048753 
3388.929712  	0.048545 
3390.858528  	0.048259 
3392.787344  	0.047839 
3394.716160  	0.047399 
3396.644976  	0.047256 
3398.573792  	0.047116 
3400.502608  	0.046672 
3402.431424  	0.046261 
3404.360240  	0.046055 
3406.289056  	0.045824 
3408.217872  	0.045375 
3410.146688  	0.045009 
3412.075504  	0.044949 
3414.004320  	0.044842 
3415.933136  	0.044441 
3417.861952  	0.043939 
3419.790768  	0.043848 
3421.719584  	0.043713 
3423.648400  	0.043221 
3425.577216  	0.043019 
3427.506032  	0.042913 
3429.434848  	0.042483 
3431.363664  	0.042185 
3433.292480  	0.042016 
3435.221296  	0.041791 
3437.150112  	0.041419 
3439.078928  	0.041113 
3441.007744  	0.040823 
3442.936560  	0.040673 
3444.865376  	0.040180 
3446.794192  	0.039663 
3448.723008  	0.039535 
3450.651824  	0.039109 
3452.580640  	0.038637 
3454.509456  	0.038434 
3456.438272  	0.038120 
3458.367088  	0.037754 
3460.295904  	0.037467 
3462.224720  	0.037055 
3464.153536  	0.036595 
3466.082352  	0.036382 
3468.011168  	0.036134 
3469.939984  	0.035660 
3471.868800  	0.035116 
3473.797616  	0.034637 
3475.726432  	0.034149 
3477.655248  	0.033631 
3479.584064  	0.033359 
3481.512880  	0.033127 
3483.441696  	0.032741 
3485.370512  	0.032236 
3487.299328  	0.031921 
3489.228144  	0.031544 
3491.156960  	0.030849 
3493.085776  	0.030421 
3495.014592  	0.030109 
3496.943408  	0.029898 
3498.872224  	0.029500 
3500.801040  	0.029327 
3502.729856  	0.029224 
3504.658672  	0.028716 
3506.587488  	0.027876 
3508.516304  	0.027525 
3510.445120  	0.027429 
3512.373936  	0.027205 
3514.302752  	0.026907 
3516.231568  	0.026431 
3518.160384  	0.026182 
3520.089200  	0.026008 
3522.018016  	0.025624 
3523.946832  	0.025530 
3525.875648  	0.025178 
3527.804464  	0.024819 
3529.733280  	0.024557 
3531.662096  	0.024158 
3533.590912  	0.023743 
3535.519728  	0.023597 
3537.448544  	0.023470 
3539.377360  	0.022869 
3541.306176  	0.022277 
3543.234992  	0.022153 
3545.163808  	0.022690 
3547.092624  	0.022516 
3549.021440  	0.021361 
3550.950256  	0.020646 
3552.879072  	0.020811 
3554.807888  	0.020753 
3556.736704  	0.020280 
3558.665520  	0.019990 
3560.594336  	0.020037 
3562.523152  	0.019553 
3564.451968  	0.018891 
3566.380784  	0.019224 
3568.309600  	0.019704 
3570.238416  	0.018631 
3572.167232  	0.017643 
3574.096048  	0.017291 
3576.024864  	0.017026 
3577.953680  	0.016671 
3579.882496  	0.016446 
3581.811312  	0.016150 
3583.740128  	0.015388 
3585.668944  	0.014951 
3587.597760  	0.015790 
3589.526576  	0.015485 
3591.455392  	0.013913 
3593.384208  	0.013447 
3595.313024  	0.013508 
3597.241840  	0.013054 
3599.170656  	0.012053 
3601.099472  	0.011789 
3603.028288  	0.011823 
3604.957104  	0.011174 
3606.885920  	0.010493 
3608.814736  	0.010918 
3610.743552  	0.010169 
3612.672368  	0.009225 
3614.601184  	0.008991 
3616.530000  	0.007879 
3618.458816  	0.007544 
3620.387632  	0.008281 
3622.316448  	0.007786 
3624.245264  	0.006932 
3626.174080  	0.005694 
3628.102896  	0.004998 
3630.031712  	0.006649 
3631.960528  	0.005972 
3633.889344  	0.005112 
3635.818160  	0.004503 
3637.746976  	0.003985 
3639.675792  	0.003884 
3641.604608  	0.003648 
3643.533424  	0.002810 
3645.462240  	0.001192 
3647.391056  	0.000119 
3649.319872  	0.000078 
3651.248688  	0.001524 
3653.177504  	0.001027 
3655.106320  	-0.000350 
3657.035136  	0.000057 
3658.963952  	-0.000112 
3660.892768  	-0.000747 
3662.821584  	-0.001080 
3664.750400  	-0.001318 
3666.679216  	-0.002326 
3668.608032  	-0.003722 
3670.536848  	-0.002946 
3672.465664  	-0.003079 
3674.394480  	-0.005076 
3676.323296  	-0.003160 
3678.252112  	-0.002144 
3680.180928  	-0.002075 
3682.109744  	-0.002030 
3684.038560  	-0.002355 
3685.967376  	-0.003554 
3687.896192  	-0.004630 
3689.825008  	-0.004095 
3691.753824  	-0.003082 
3693.682640  	-0.002588 
3695.611456  	-0.002780 
3697.540272  	-0.002728 
3699.469088  	-0.002889 
3701.397904  	-0.002409 
3703.326720  	-0.001710 
3705.255536  	-0.001985 
3707.184352  	-0.002835 
3709.113168  	-0.003825 
3711.041984  	-0.003548 
3712.970800  	-0.001868 
3714.899616  	-0.001406 
3716.828432  	-0.001908 
3718.757248  	-0.002297 
3720.686064  	-0.002542 
3722.614880  	-0.001924 
3724.543696  	-0.001578 
3726.472512  	-0.001317 
3728.401328  	-0.001695 
3730.330144  	-0.003558 
3732.258960  	-0.004492 
3734.187776  	-0.003566 
3736.116592  	-0.001301 
3738.045408  	-0.001272 
3739.974224  	-0.002089 
3741.903040  	-0.003166 
3743.831856  	-0.002967 
3745.760672  	-0.000952 
3747.689488  	-0.003288 
3749.618304  	-0.004570 
3751.547120  	-0.003191 
3753.475936  	-0.001040 
3755.404752  	-0.001595 
3757.333568  	-0.002189 
3759.262384  	-0.002059 
3761.191200  	-0.001189 
3763.120016  	-0.001547 
3765.048832  	-0.002035 
3766.977648  	-0.002015 
3768.906464  	-0.002262 
3770.835280  	-0.001277 
3772.764096  	-0.000883 
3774.692912  	-0.001258 
3776.621728  	-0.001968 
3778.550544  	-0.002427 
3780.479360  	-0.001563 
3782.408176  	-0.001541 
3784.336992  	-0.001864 
3786.265808  	-0.001502 
3788.194624  	-0.001359 
3790.123440  	-0.001498 
3792.052256  	-0.001618 
3793.981072  	-0.002211 
3795.909888  	-0.002537 
3797.838704  	-0.002236 
3799.767520  	-0.003728 
3801.696336  	-0.003324 
3803.625152  	-0.002126 
3805.553968  	-0.003116 
3807.482784  	-0.002220 
3809.411600  	-0.001241 
3811.340416  	-0.001382 
3813.269232  	-0.002420 
3815.198048  	-0.003511 
3817.126864  	-0.002704 
3819.055680  	-0.003901 
3820.984496  	-0.003531 
3822.913312  	-0.001344 
3824.842128  	-0.002074 
3826.770944  	-0.002165 
3828.699760  	-0.002120 
3830.628576  	-0.002731 
3832.557392  	-0.002603 
3834.486208  	-0.003196 
3836.415024  	-0.004074 
3838.343840  	-0.003154 
3840.272656  	-0.002030 
3842.201472  	-0.002067 
3844.130288  	-0.001880 
3846.059104  	-0.001568 
3847.987920  	-0.002118 
3849.916736  	-0.003355 
3851.845552  	-0.005013 
3853.774368  	-0.002570 
3855.703184  	-0.000878 
3857.632000  	-0.001488 
3859.560816  	-0.002130 
3861.489632  	-0.002625 
3863.418448  	-0.002680 
3865.347264  	-0.001926 
3867.276080  	-0.002397 
3869.204896  	-0.002828 
3871.133712  	-0.001021 
3873.062528  	-0.001734 
3874.991344  	-0.001384 
3876.920160  	-0.001693 
3878.848976  	-0.002348 
3880.777792  	-0.001405 
3882.706608  	-0.001182 
3884.635424  	-0.001797 
3886.564240  	-0.000735 
3888.493056  	-0.001575 
3890.421872  	-0.002219 
3892.350688  	-0.001258 
3894.279504  	-0.001213 
3896.208320  	-0.001852 
3898.137136  	-0.002149 
3900.065952  	-0.001758 
3901.994768  	-0.001561 
3903.923584  	-0.001015 
3905.852400  	-0.000495 
3907.781216  	-0.001013 
3909.710032  	-0.001613 
3911.638848  	-0.001683 
3913.567664  	-0.001688 
3915.496480  	-0.001604 
3917.425296  	-0.000712 
3919.354112  	-0.000713 
3921.282928  	-0.001023 
3923.211744  	-0.001251 
3925.140560  	-0.000883 
3927.069376  	-0.001165 
3928.998192  	-0.001670 
3930.927008  	-0.001198 
3932.855824  	-0.000444 
3934.784640  	-0.000800 
3936.713456  	-0.001071 
3938.642272  	-0.001114 
3940.571088  	-0.001393 
3942.499904  	-0.000807 
3944.428720  	-0.000597 
3946.357536  	-0.001102 
3948.286352  	-0.001113 
3950.215168  	-0.001312 
3952.143984  	-0.001509 
3954.072800  	-0.001502 
3956.001616  	-0.001494 
3957.930432  	-0.001295 
3959.859248  	-0.001075 
3961.788064  	-0.001083 
3963.716880  	-0.001058 
3965.645696  	-0.001185 
3967.574512  	-0.001096 
3969.503328  	-0.001083 
3971.432144  	-0.001233 
3973.360960  	-0.001224 
3975.289776  	-0.000945 
3977.218592  	-0.000890 
3979.147408  	-0.001009 
3981.076224  	-0.001253 
3983.005040  	-0.001338 
3984.933856  	-0.001277 
3986.862672  	-0.001257 
3988.791488  	-0.001334 
3990.720304  	-0.001201 
3992.649120  	-0.001146 
3994.577936  	-0.001300 
3996.506752  	-0.001337 
3998.435568  	-0.001251 
4000.364384  	-0.001269 