##TITLE=No Description
##DATA TYPE=INFRARED SPECTRUM
##XUNITS=1/CM
##YUNITS=Abs
399.264912  	0.535409 
401.193728  	0.549052 
403.122544  	0.561125 
405.051360  	0.555846 
406.980176  	0.538293 
408.908992  	0.518391 
410.837808  	0.516450 
412.766624  	0.522139 
414.695440  	0.528903 
416.624256  	0.511903 
418.553072  	0.500516 
420.481888  	0.511195 
422.410704  	0.523299 
424.339520  	0.514295 
426.268336  	0.509559 
428.197152  	0.500958 
430.125968  	0.500778 
432.054784  	0.492755 
433.983600  	0.492773 
435.912416  	0.492242 
437.841232  	0.489676 
439.770048  	0.481438 
441.698864  	0.478673 
443.627680  	0.474949 
445.556496  	0.474689 
447.485312  	0.474680 
449.414128  	0.475536 
451.342944  	0.473456 
453.271760  	0.473860 
455.200576  	0.464022 
457.129392  	0.460219 
459.058208  	0.460697 
460.987024  	0.464488 
462.915840  	0.466200 
464.844656  	0.468701 
466.773472  	0.469280 
468.702288  	0.469733 
470.631104  	0.463684 
472.559920  	0.467088 
474.488736  	0.463136 
476.417552  	0.461133 
478.346368  	0.458793 
480.275184  	0.460362 
482.204000  	0.460293 
484.132816  	0.462919 
486.061632  	0.460192 
487.990448  	0.459920 
489.919264  	0.456204 
491.848080  	0.453454 
493.776896  	0.451499 
495.705712  	0.451099 
497.634528  	0.450011 
499.563344  	0.449725 
501.492160  	0.448214 
503.420976  	0.450073 
505.349792  	0.447697 
507.278608  	0.447404 
509.207424  	0.446956 
511.136240  	0.447176 
513.065056  	0.447743 
514.993872  	0.448341 
516.922688  	0.446637 
518.851504  	0.449936 
520.780320  	0.448985 
522.709136  	0.448022 
524.637952  	0.446388 
526.566768  	0.445012 
528.495584  	0.441144 
530.424400  	0.439357 
532.353216  	0.435707 
534.282032  	0.433277 
536.210848  	0.429523 
538.139664  	0.426015 
540.068480  	0.423534 
541.997296  	0.420630 
543.926112  	0.416126 
545.854928  	0.413909 
547.783744  	0.409920 
549.712560  	0.407050 
551.641376  	0.403941 
553.570192  	0.400485 
555.499008  	0.396649 
557.427824  	0.394643 
559.356640  	0.391886 
561.285456  	0.388913 
563.214272  	0.385314 
565.143088  	0.383037 
567.071904  	0.380195 
569.000720  	0.377424 
570.929536  	0.373117 
572.858352  	0.369635 
574.787168  	0.366816 
576.715984  	0.364031 
578.644800  	0.360961 
580.573616  	0.358153 
582.502432  	0.354339 
584.431248  	0.351727 
586.360064  	0.349164 
588.288880  	0.347461 
590.217696  	0.345640 
592.146512  	0.344268 
594.075328  	0.342041 
596.004144  	0.339636 
597.932960  	0.338404 
599.861776  	0.337994 
601.790592  	0.337041 
603.719408  	0.335970 
605.648224  	0.334266 
607.577040  	0.333183 
609.505856  	0.332231 
611.434672  	0.331829 
613.363488  	0.330067 
615.292304  	0.328971 
617.221120  	0.327409 
619.149936  	0.325548 
621.078752  	0.323466 
623.007568  	0.321277 
624.936384  	0.318709 
626.865200  	0.317678 
628.794016  	0.316493 
630.722832  	0.314919 
632.651648  	0.313845 
634.580464  	0.313213 
636.509280  	0.312927 
638.438096  	0.312950 
640.366912  	0.312378 
642.295728  	0.310890 
644.224544  	0.308462 
646.153360  	0.305462 
648.082176  	0.301756 
650.010992  	0.299103 
651.939808  	0.295690 
653.868624  	0.292342 
655.797440  	0.288866 
657.726256  	0.286068 
659.655072  	0.282870 
661.583888  	0.280090 
663.512704  	0.277501 
665.441520  	0.275132 
667.370336  	0.271514 
669.299152  	0.267998 
671.227968  	0.266485 
673.156784  	0.264625 
675.085600  	0.262826 
677.014416  	0.261190 
678.943232  	0.259385 
680.872048  	0.257458 
682.800864  	0.255829 
684.729680  	0.254484 
686.658496  	0.252701 
688.587312  	0.250796 
690.516128  	0.248990 
692.444944  	0.248007 
694.373760  	0.246551 
696.302576  	0.245137 
698.231392  	0.243147 
700.160208  	0.240782 
702.089024  	0.238077 
704.017840  	0.236522 
705.946656  	0.234450 
707.875472  	0.231889 
709.804288  	0.230031 
711.733104  	0.228882 
713.661920  	0.227489 
715.590736  	0.226167 
717.519552  	0.225628 
719.448368  	0.226246 
721.377184  	0.227158 
723.306000  	0.227535 
725.234816  	0.226806 
727.163632  	0.225432 
729.092448  	0.223296 
731.021264  	0.221027 
732.950080  	0.218626 
734.878896  	0.216258 
736.807712  	0.213986 
738.736528  	0.212387 
740.665344  	0.210996 
742.594160  	0.209740 
744.522976  	0.208496 
746.451792  	0.207223 
748.380608  	0.206072 
750.309424  	0.205399 
752.238240  	0.204736 
754.167056  	0.204664 
756.095872  	0.204014 
758.024688  	0.203040 
759.953504  	0.202345 
761.882320  	0.201980 
763.811136  	0.201675 
765.739952  	0.201053 
767.668768  	0.199903 
769.597584  	0.198893 
771.526400  	0.198819 
773.455216  	0.200141 
775.384032  	0.201951 
777.312848  	0.204564 
779.241664  	0.207458 
781.170480  	0.208267 
783.099296  	0.205607 
785.028112  	0.201391 
786.956928  	0.196530 
788.885744  	0.192056 
790.814560  	0.188481 
792.743376  	0.186370 
794.672192  	0.184775 
796.601008  	0.183823 
798.529824  	0.182358 
800.458640  	0.179807 
802.387456  	0.176888 
804.316272  	0.175489 
806.245088  	0.174844 
808.173904  	0.174197 
810.102720  	0.173932 
812.031536  	0.173873 
813.960352  	0.173469 
815.889168  	0.173111 
817.817984  	0.173030 
819.746800  	0.172552 
821.675616  	0.171996 
823.604432  	0.171821 
825.533248  	0.170925 
827.462064  	0.169554 
829.390880  	0.168582 
831.319696  	0.167902 
833.248512  	0.166746 
835.177328  	0.165252 
837.106144  	0.163083 
839.034960  	0.160442 
840.963776  	0.158059 
842.892592  	0.155944 
844.821408  	0.153229 
846.750224  	0.150709 
848.679040  	0.148929 
850.607856  	0.147174 
852.536672  	0.145402 
854.465488  	0.143665 
856.394304  	0.142353 
858.323120  	0.141059 
860.251936  	0.139436 
862.180752  	0.137729 
864.109568  	0.136254 
866.038384  	0.134778 
867.967200  	0.133205 
869.896016  	0.132004 
871.824832  	0.131109 
873.753648  	0.130545 
875.682464  	0.130286 
877.611280  	0.130312 
879.540096  	0.130327 
881.468912  	0.130869 
883.397728  	0.131568 
885.326544  	0.131879 
887.255360  	0.131440 
889.184176  	0.130753 
891.112992  	0.129572 
893.041808  	0.128121 
894.970624  	0.126482 
896.899440  	0.124263 
898.828256  	0.121463 
900.757072  	0.118634 
902.685888  	0.116412 
904.614704  	0.114975 
906.543520  	0.114424 
908.472336  	0.115045 
910.401152  	0.116367 
912.329968  	0.118428 
914.258784  	0.120762 
916.187600  	0.123015 
918.116416  	0.124691 
920.045232  	0.125335 
921.974048  	0.124984 
923.902864  	0.124224 
925.831680  	0.123193 
927.760496  	0.122199 
929.689312  	0.121338 
931.618128  	0.121147 
933.546944  	0.121256 
935.475760  	0.121379 
937.404576  	0.121604 
939.333392  	0.122134 
941.262208  	0.123154 
943.191024  	0.124830 
945.119840  	0.127711 
947.048656  	0.131350 
948.977472  	0.135590 
950.906288  	0.140520 
952.835104  	0.145940 
954.763920  	0.151331 
956.692736  	0.156406 
958.621552  	0.160873 
960.550368  	0.163953 
962.479184  	0.165460 
964.408000  	0.164595 
966.336816  	0.161865 
968.265632  	0.157136 
970.194448  	0.151173 
972.123264  	0.144065 
974.052080  	0.136316 
975.980896  	0.128908 
977.909712  	0.121961 
979.838528  	0.115909 
981.767344  	0.111161 
983.696160  	0.107737 
985.624976  	0.105745 
987.553792  	0.105965 
989.482608  	0.107807 
991.411424  	0.111046 
993.340240  	0.115587 
995.269056  	0.121252 
997.197872  	0.127281 
999.126688  	0.132962 
1001.055504  	0.138436 
1002.984320  	0.143768 
1004.913136  	0.148992 
1006.841952  	0.153577 
1008.770768  	0.157477 
1010.699584  	0.160070 
1012.628400  	0.161770 
1014.557216  	0.162698 
1016.486032  	0.163329 
1018.414848  	0.163756 
1020.343664  	0.164017 
1022.272480  	0.164142 
1024.201296  	0.163923 
1026.130112  	0.163011 
1028.058928  	0.163074 
1029.987744  	0.164265 
1031.916560  	0.165606 
1033.845376  	0.167195 
1035.774192  	0.169204 
1037.703008  	0.171706 
1039.631824  	0.175650 
1041.560640  	0.180794 
1043.489456  	0.187586 
1045.418272  	0.196196 
1047.347088  	0.206660 
1049.275904  	0.217432 
1051.204720  	0.228548 
1053.133536  	0.237863 
1055.062352  	0.245154 
1056.991168  	0.249831 
1058.919984  	0.252749 
1060.848800  	0.253415 
1062.777616  	0.252073 
1064.706432  	0.248846 
1066.635248  	0.245058 
1068.564064  	0.241128 
1070.492880  	0.236749 
1072.421696  	0.231317 
1074.350512  	0.226388 
1076.279328  	0.222299 
1078.208144  	0.219019 
1080.136960  	0.216361 
1082.065776  	0.214245 
1083.994592  	0.211550 
1085.923408  	0.208931 
1087.852224  	0.206043 
1089.781040  	0.202833 
1091.709856  	0.198475 
1093.638672  	0.193104 
1095.567488  	0.186283 
1097.496304  	0.179137 
1099.425120  	0.171521 
1101.353936  	0.163887 
1103.282752  	0.156044 
1105.211568  	0.147991 
1107.140384  	0.140117 
1109.069200  	0.132359 
1110.998016  	0.125101 
1112.926832  	0.118330 
1114.855648  	0.111933 
1116.784464  	0.105828 
1118.713280  	0.100331 
1120.642096  	0.095321 
1122.570912  	0.090401 
1124.499728  	0.085707 
1126.428544  	0.081225 
1128.357360  	0.076852 
1130.286176  	0.072837 
1132.214992  	0.069436 
1134.143808  	0.066558 
1136.072624  	0.064077 
1138.001440  	0.061688 
1139.930256  	0.059240 
1141.859072  	0.057018 
1143.787888  	0.054867 
1145.716704  	0.053284 
1147.645520  	0.052278 
1149.574336  	0.051402 
1151.503152  	0.050621 
1153.431968  	0.050447 
1155.360784  	0.050390 
1157.289600  	0.050775 
1159.218416  	0.051538 
1161.147232  	0.052343 
1163.076048  	0.053318 
1165.004864  	0.054659 
1166.933680  	0.056000 
1168.862496  	0.057588 
1170.791312  	0.059470 
1172.720128  	0.061373 
1174.648944  	0.063146 
1176.577760  	0.065255 
1178.506576  	0.067614 
1180.435392  	0.069661 
1182.364208  	0.071624 
1184.293024  	0.073950 
1186.221840  	0.076368 
1188.150656  	0.079063 
1190.079472  	0.082177 
1192.008288  	0.085681 
1193.937104  	0.089569 
1195.865920  	0.093990 
1197.794736  	0.098792 
1199.723552  	0.104143 
1201.652368  	0.109632 
1203.581184  	0.115084 
1205.510000  	0.120152 
1207.438816  	0.125287 
1209.367632  	0.130052 
1211.296448  	0.134402 
1213.225264  	0.138622 
1215.154080  	0.142150 
1217.082896  	0.145028 
1219.011712  	0.147301 
1220.940528  	0.149318 
1222.869344  	0.150594 
1224.798160  	0.151439 
1226.726976  	0.151848 
1228.655792  	0.151960 
1230.584608  	0.151619 
1232.513424  	0.150450 
1234.442240  	0.148376 
1236.371056  	0.145917 
1238.299872  	0.142889 
1240.228688  	0.138947 
1242.157504  	0.134516 
1244.086320  	0.129857 
1246.015136  	0.124538 
1247.943952  	0.119026 
1249.872768  	0.113587 
1251.801584  	0.108412 
1253.730400  	0.103342 
1255.659216  	0.098562 
1257.588032  	0.093824 
1259.516848  	0.089497 
1261.445664  	0.085506 
1263.374480  	0.081764 
1265.303296  	0.078535 
1267.232112  	0.075941 
1269.160928  	0.073989 
1271.089744  	0.072853 
1273.018560  	0.072487 
1274.947376  	0.072498 
1276.876192  	0.072502 
1278.805008  	0.072084 
1280.733824  	0.070839 
1282.662640  	0.068527 
1284.591456  	0.065390 
1286.520272  	0.062137 
1288.449088  	0.059587 
1290.377904  	0.057524 
1292.306720  	0.055814 
1294.235536  	0.053839 
1296.164352  	0.051146 
1298.093168  	0.048112 
1300.021984  	0.045282 
1301.950800  	0.042734 
1303.879616  	0.040669 
1305.808432  	0.039034 
1307.737248  	0.037840 
1309.666064  	0.036820 
1311.594880  	0.036424 
1313.523696  	0.036404 
1315.452512  	0.036494 
1317.381328  	0.036880 
1319.310144  	0.037428 
1321.238960  	0.038064 
1323.167776  	0.038787 
1325.096592  	0.039153 
1327.025408  	0.039164 
1328.954224  	0.038762 
1330.883040  	0.038079 
1332.811856  	0.037116 
1334.740672  	0.036317 
1336.669488  	0.035685 
1338.598304  	0.035390 
1340.527120  	0.034896 
1342.455936  	0.034342 
1344.384752  	0.034294 
1346.313568  	0.034786 
1348.242384  	0.035734 
1350.171200  	0.037134 
1352.100016  	0.038638 
1354.028832  	0.040260 
1355.957648  	0.042067 
1357.886464  	0.043695 
1359.815280  	0.044912 
1361.744096  	0.046211 
1363.672912  	0.047486 
1365.601728  	0.048012 
1367.530544  	0.048260 
1369.459360  	0.048364 
1371.388176  	0.047815 
1373.316992  	0.046754 
1375.245808  	0.045417 
1377.174624  	0.044168 
1379.103440  	0.042752 
1381.032256  	0.041364 
1382.961072  	0.040243 
1384.889888  	0.039511 
1386.818704  	0.038942 
1388.747520  	0.038180 
1390.676336  	0.036993 
1392.605152  	0.035533 
1394.533968  	0.034780 
1396.462784  	0.035572 
1398.391600  	0.035955 
1400.320416  	0.036555 
1402.249232  	0.036958 
1404.178048  	0.037760 
1406.106864  	0.039000 
1408.035680  	0.040370 
1409.964496  	0.041768 
1411.893312  	0.043468 
1413.822128  	0.044994 
1415.750944  	0.046319 
1417.679760  	0.046699 
1419.608576  	0.046736 
1421.537392  	0.046718 
1423.466208  	0.046202 
1425.395024  	0.045258 
1427.323840  	0.043847 
1429.252656  	0.042200 
1431.181472  	0.041388 
1433.110288  	0.041134 
1435.039104  	0.040682 
1436.967920  	0.040870 
1438.896736  	0.041682 
1440.825552  	0.041981 
1442.754368  	0.042290 
1444.683184  	0.042172 
1446.612000  	0.041905 
1448.540816  	0.041929 
1450.469632  	0.042188 
1452.398448  	0.042192 
1454.327264  	0.041921 
1456.256080  	0.041113 
1458.184896  	0.041695 
1460.113712  	0.042831 
1462.042528  	0.043237 
1463.971344  	0.043008 
1465.900160  	0.044576 
1467.828976  	0.046620 
1469.757792  	0.048128 
1471.686608  	0.049644 
1473.615424  	0.053474 
1475.544240  	0.056406 
1477.473056  	0.058479 
1479.401872  	0.059147 
1481.330688  	0.059394 
1483.259504  	0.059281 
1485.188320  	0.058292 
1487.117136  	0.056294 
1489.045952  	0.054380 
1490.974768  	0.052126 
1492.903584  	0.049968 
1494.832400  	0.047129 
1496.761216  	0.044099 
1498.690032  	0.042046 
1500.618848  	0.040948 
1502.547664  	0.039498 
1504.476480  	0.036910 
1506.405296  	0.034610 
1508.334112  	0.036343 
1510.262928  	0.036402 
1512.191744  	0.035578 
1514.120560  	0.034635 
1516.049376  	0.033962 
1517.978192  	0.033996 
1519.907008  	0.034144 
1521.835824  	0.035327 
1523.764640  	0.038035 
1525.693456  	0.040419 
1527.622272  	0.042623 
1529.551088  	0.043962 
1531.479904  	0.044188 
1533.408720  	0.043608 
1535.337536  	0.043769 
1537.266352  	0.041708 
1539.195168  	0.037363 
1541.123984  	0.035949 
1543.052800  	0.037373 
1544.981616  	0.037649 
1546.910432  	0.037245 
1548.839248  	0.036579 
1550.768064  	0.036573 
1552.696880  	0.036043 
1554.625696  	0.035900 
1556.554512  	0.034712 
1558.483328  	0.033271 
1560.412144  	0.038369 
1562.340960  	0.041476 
1564.269776  	0.042970 
1566.198592  	0.045581 
1568.127408  	0.047235 
1570.056224  	0.050783 
1571.985040  	0.054447 
1573.913856  	0.055596 
1575.842672  	0.055900 
1577.771488  	0.058391 
1579.700304  	0.059235 
1581.629120  	0.059464 
1583.557936  	0.059832 
1585.486752  	0.061165 
1587.415568  	0.063201 
1589.344384  	0.066369 
1591.273200  	0.069947 
1593.202016  	0.074035 
1595.130832  	0.077944 
1597.059648  	0.081796 
1598.988464  	0.084627 
1600.917280  	0.086892 
1602.846096  	0.088091 
1604.774912  	0.088715 
1606.703728  	0.088256 
1608.632544  	0.087939 
1610.561360  	0.087588 
1612.490176  	0.087524 
1614.418992  	0.086759 
1616.347808  	0.087441 
1618.276624  	0.091093 
1620.205440  	0.094351 
1622.134256  	0.096883 
1624.063072  	0.102433 
1625.991888  	0.107570 
1627.920704  	0.113064 
1629.849520  	0.119363 
1631.778336  	0.124288 
1633.707152  	0.126966 
1635.635968  	0.131328 
1637.564784  	0.138108 
1639.493600  	0.142014 
1641.422416  	0.144582 
1643.351232  	0.145878 
1645.280048  	0.145203 
1647.208864  	0.146115 
1649.137680  	0.147406 
1651.066496  	0.145253 
1652.995312  	0.142167 
1654.924128  	0.145681 
1656.852944  	0.145673 
1658.781760  	0.144718 
1660.710576  	0.143254 
1662.639392  	0.142152 
1664.568208  	0.141913 
1666.497024  	0.140709 
1668.425840  	0.138506 
1670.354656  	0.138062 
1672.283472  	0.138250 
1674.212288  	0.137602 
1676.141104  	0.138618 
1678.069920  	0.139706 
1679.998736  	0.140117 
1681.927552  	0.139131 
1683.856368  	0.137381 
1685.785184  	0.140066 
1687.714000  	0.140188 
1689.642816  	0.139208 
1691.571632  	0.137680 
1693.500448  	0.135051 
1695.429264  	0.131031 
1697.358080  	0.128174 
1699.286896  	0.124320 
1701.215712  	0.120907 
1703.144528  	0.118193 
1705.073344  	0.113967 
1707.002160  	0.109851 
1708.930976  	0.106193 
1710.859792  	0.101913 
1712.788608  	0.096961 
1714.717424  	0.091334 
1716.646240  	0.085116 
1718.575056  	0.080039 
1720.503872  	0.076277 
1722.432688  	0.072036 
1724.361504  	0.066926 
1726.290320  	0.062206 
1728.219136  	0.057486 
1730.147952  	0.052966 
1732.076768  	0.048261 
1734.005584  	0.042977 
1735.934400  	0.039148 
1737.863216  	0.036310 
1739.792032  	0.031900 
1741.720848  	0.029077 
1743.649664  	0.026538 
1745.578480  	0.023941 
1747.507296  	0.021104 
1749.436112  	0.019376 
1751.364928  	0.018367 
1753.293744  	0.017627 
1755.222560  	0.016275 
1757.151376  	0.015425 
1759.080192  	0.014359 
1761.009008  	0.013602 
1762.937824  	0.013213 
1764.866640  	0.013091 
1766.795456  	0.012525 
1768.724272  	0.012118 
1770.653088  	0.010328 
1772.581904  	0.009888 
1774.510720  	0.010924 
1776.439536  	0.011383 
1778.368352  	0.011092 
1780.297168  	0.010993 
1782.225984  	0.010737 
1784.154800  	0.010636 
1786.083616  	0.010666 
1788.012432  	0.010580 
1789.941248  	0.009842 
1791.870064  	0.009298 
1793.798880  	0.009385 
1795.727696  	0.009906 
1797.656512  	0.009617 
1799.585328  	0.009297 
1801.514144  	0.009364 
1803.442960  	0.009428 
1805.371776  	0.009068 
1807.300592  	0.008888 
1809.229408  	0.008418 
1811.158224  	0.008540 
1813.087040  	0.008579 
1815.015856  	0.008374 
1816.944672  	0.008273 
1818.873488  	0.008668 
1820.802304  	0.008632 
1822.731120  	0.008496 
1824.659936  	0.008037 
1826.588752  	0.008255 
1828.517568  	0.007788 
1830.446384  	0.008044 
1832.375200  	0.008329 
1834.304016  	0.008376 
1836.232832  	0.008286 
1838.161648  	0.008750 
1840.090464  	0.008665 
1842.019280  	0.007972 
1843.948096  	0.007196 
1845.876912  	0.008015 
1847.805728  	0.008368 
1849.734544  	0.008517 
1851.663360  	0.008405 
1853.592176  	0.008558 
1855.520992  	0.008495 
1857.449808  	0.008661 
1859.378624  	0.008526 
1861.307440  	0.008420 
1863.236256  	0.007997 
1865.165072  	0.007966 
1867.093888  	0.007634 
1869.022704  	0.007850 
1870.951520  	0.007982 
1872.880336  	0.008185 
1874.809152  	0.007905 
1876.737968  	0.007766 
1878.666784  	0.007556 
1880.595600  	0.007926 
1882.524416  	0.008049 
1884.453232  	0.007890 
1886.382048  	0.007596 
1888.310864  	0.007637 
1890.239680  	0.007824 
1892.168496  	0.008229 
1894.097312  	0.007738 
1896.026128  	0.007619 
1897.954944  	0.007530 
1899.883760  	0.007728 
1901.812576  	0.007592 
1903.741392  	0.007822 
1905.670208  	0.007679 
1907.599024  	0.007511 
1909.527840  	0.007396 
1911.456656  	0.007778 
1913.385472  	0.007912 
1915.314288  	0.008112 
1917.243104  	0.007685 
1919.171920  	0.007428 
1921.100736  	0.007506 
1923.029552  	0.008303 
1924.958368  	0.007814 
1926.887184  	0.007623 
1928.816000  	0.007148 
1930.744816  	0.006778 
1932.673632  	0.006931 
1934.602448  	0.007861 
1936.531264  	0.007791 
1938.460080  	0.007370 
1940.388896  	0.007118 
1942.317712  	0.007658 
1944.246528  	0.007561 
1946.175344  	0.008468 
1948.104160  	0.007957 
1950.032976  	0.007406 
1951.961792  	0.007290 
1953.890608  	0.007635 
1955.819424  	0.007035 
1957.748240  	0.007196 
1959.677056  	0.007790 
1961.605872  	0.008099 
1963.534688  	0.007081 
1965.463504  	0.007848 
1967.392320  	0.007633 
1969.321136  	0.007287 
1971.249952  	0.007652 
1973.178768  	0.008755 
1975.107584  	0.007684 
1977.036400  	0.007558 
1978.965216  	0.009442 
1980.894032  	0.009460 
1982.822848  	0.007177 
1984.751664  	0.007581 
1986.680480  	0.008182 
1988.609296  	0.008956 
1990.538112  	0.009319 
1992.466928  	0.008499 
1994.395744  	0.007498 
1996.324560  	0.008054 
1998.253376  	0.008177 
2000.182192  	0.008340 
2002.111008  	0.008096 
2004.039824  	0.008017 
2005.968640  	0.007557 
2007.897456  	0.009699 
2009.826272  	0.009832 
2011.755088  	0.008322 
2013.683904  	0.008052 
2015.612720  	0.008421 
2017.541536  	0.007317 
2019.470352  	0.008103 
2021.399168  	0.007981 
2023.327984  	0.008287 
2025.256800  	0.007853 
2027.185616  	0.007772 
2029.114432  	0.007562 
2031.043248  	0.008947 
2032.972064  	0.008640 
2034.900880  	0.008585 
2036.829696  	0.008225 
2038.758512  	0.007582 
2040.687328  	0.007378 
2042.616144  	0.007799 
2044.544960  	0.007347 
2046.473776  	0.007744 
2048.402592  	0.008168 
2050.331408  	0.009646 
2052.260224  	0.009120 
2054.189040  	0.008700 
2056.117856  	0.008152 
2058.046672  	0.008427 
2059.975488  	0.008369 
2061.904304  	0.008541 
2063.833120  	0.009421 
2065.761936  	0.009760 
2067.690752  	0.009137 
2069.619568  	0.008737 
2071.548384  	0.007795 
2073.477200  	0.007999 
2075.406016  	0.008836 
2077.334832  	0.009305 
2079.263648  	0.008603 
2081.192464  	0.008678 
2083.121280  	0.009219 
2085.050096  	0.009020 
2086.978912  	0.008514 
2088.907728  	0.008751 
2090.836544  	0.008453 
2092.765360  	0.008292 
2094.694176  	0.008351 
2096.622992  	0.008244 
2098.551808  	0.007747 
2100.480624  	0.008044 
2102.409440  	0.008014 
2104.338256  	0.007870 
2106.267072  	0.007840 
2108.195888  	0.008497 
2110.124704  	0.009236 
2112.053520  	0.009568 
2113.982336  	0.009052 
2115.911152  	0.009236 
2117.839968  	0.008938 
2119.768784  	0.008209 
2121.697600  	0.007650 
2123.626416  	0.007647 
2125.555232  	0.007761 
2127.484048  	0.008313 
2129.412864  	0.007783 
2131.341680  	0.006635 
2133.270496  	0.007065 
2135.199312  	0.008165 
2137.128128  	0.008239 
2139.056944  	0.008798 
2140.985760  	0.008371 
2142.914576  	0.009032 
2144.843392  	0.008680 
2146.772208  	0.008423 
2148.701024  	0.008450 
2150.629840  	0.008037 
2152.558656  	0.006864 
2154.487472  	0.007217 
2156.416288  	0.007532 
2158.345104  	0.009812 
2160.273920  	0.011251 
2162.202736  	0.011366 
2164.131552  	0.011136 
2166.060368  	0.011684 
2167.989184  	0.009963 
2169.918000  	0.009109 
2171.846816  	0.009734 
2173.775632  	0.009587 
2175.704448  	0.009326 
2177.633264  	0.010031 
2179.562080  	0.009892 
2181.490896  	0.009584 
2183.419712  	0.009458 
2185.348528  	0.010299 
2187.277344  	0.010433 
2189.206160  	0.010058 
2191.134976  	0.010063 
2193.063792  	0.010969 
2194.992608  	0.011396 
2196.921424  	0.010460 
2198.850240  	0.010296 
2200.779056  	0.010184 
2202.707872  	0.009734 
2204.636688  	0.010165 
2206.565504  	0.010267 
2208.494320  	0.010008 
2210.423136  	0.008292 
2212.351952  	0.008516 
2214.280768  	0.009658 
2216.209584  	0.009310 
2218.138400  	0.009410 
2220.067216  	0.010035 
2221.996032  	0.009632 
2223.924848  	0.008567 
2225.853664  	0.008603 
2227.782480  	0.009937 
2229.711296  	0.010318 
2231.640112  	0.009841 
2233.568928  	0.008974 
2235.497744  	0.008549 
2237.426560  	0.008604 
2239.355376  	0.009051 
2241.284192  	0.008804 
2243.213008  	0.009044 
2245.141824  	0.009315 
2247.070640  	0.008729 
2248.999456  	0.008411 
2250.928272  	0.008892 
2252.857088  	0.008835 
2254.785904  	0.008842 
2256.714720  	0.009678 
2258.643536  	0.010387 
2260.572352  	0.010163 
2262.501168  	0.010013 
2264.429984  	0.009968 
2266.358800  	0.010147 
2268.287616  	0.009850 
2270.216432  	0.009764 
2272.145248  	0.009688 
2274.074064  	0.009834 
2276.002880  	0.009560 
2277.931696  	0.010099 
2279.860512  	0.010845 
2281.789328  	0.010939 
2283.718144  	0.010626 
2285.646960  	0.010647 
2287.575776  	0.010788 
2289.504592  	0.010503 
2291.433408  	0.010090 
2293.362224  	0.010260 
2295.291040  	0.010592 
2297.219856  	0.010813 
2299.148672  	0.010590 
2301.077488  	0.010441 
2303.006304  	0.010630 
2304.935120  	0.010886 
2306.863936  	0.010862 
2308.792752  	0.010838 
2310.721568  	0.010871 
2312.650384  	0.010663 
2314.579200  	0.010271 
2316.508016  	0.010192 
2318.436832  	0.009799 
2320.365648  	0.009378 
2322.294464  	0.009083 
2324.223280  	0.008346 
2326.152096  	0.006570 
2328.080912  	0.005366 
2330.009728  	0.004849 
2331.938544  	0.004581 
2333.867360  	0.003913 
2335.796176  	0.003373 
2337.724992  	0.002835 
2339.653808  	0.002588 
2341.582624  	0.002801 
2343.511440  	0.003940 
2345.440256  	0.005353 
2347.369072  	0.006892 
2349.297888  	0.007018 
2351.226704  	0.005644 
2353.155520  	0.004178 
2355.084336  	0.002411 
2357.013152  	0.001213 
2358.941968  	0.000717 
2360.870784  	0.000372 
2362.799600  	0.000870 
2364.728416  	0.001298 
2366.657232  	0.002423 
2368.586048  	0.003604 
2370.514864  	0.004900 
2372.443680  	0.006398 
2374.372496  	0.008137 
2376.301312  	0.009483 
2378.230128  	0.010382 
2380.158944  	0.010629 
2382.087760  	0.010611 
2384.016576  	0.010513 
2385.945392  	0.010456 
2387.874208  	0.010141 
2389.803024  	0.009995 
2391.731840  	0.009911 
2393.660656  	0.009942 
2395.589472  	0.010108 
2397.518288  	0.010236 
2399.447104  	0.010313 
2401.375920  	0.010113 
2403.304736  	0.009918 
2405.233552  	0.010071 
2407.162368  	0.010338 
2409.091184  	0.010216 
2411.020000  	0.010161 
2412.948816  	0.010407 
2414.877632  	0.010461 
2416.806448  	0.010512 
2418.735264  	0.010650 
2420.664080  	0.010580 
2422.592896  	0.010247 
2424.521712  	0.010306 
2426.450528  	0.010545 
2428.379344  	0.010455 
2430.308160  	0.010369 
2432.236976  	0.010484 
2434.165792  	0.010814 
2436.094608  	0.011297 
2438.023424  	0.011482 
2439.952240  	0.011570 
2441.881056  	0.011619 
2443.809872  	0.011439 
2445.738688  	0.011383 
2447.667504  	0.011455 
2449.596320  	0.011524 
2451.525136  	0.011680 
2453.453952  	0.011765 
2455.382768  	0.012011 
2457.311584  	0.012193 
2459.240400  	0.012123 
2461.169216  	0.011892 
2463.098032  	0.011742 
2465.026848  	0.011730 
2466.955664  	0.011751 
2468.884480  	0.011499 
2470.813296  	0.011541 
2472.742112  	0.011536 
2474.670928  	0.011635 
2476.599744  	0.011829 
2478.528560  	0.012064 
2480.457376  	0.012436 
2482.386192  	0.012434 
2484.315008  	0.012271 
2486.243824  	0.012418 
2488.172640  	0.012512 
2490.101456  	0.012551 
2492.030272  	0.012587 
2493.959088  	0.012450 
2495.887904  	0.012179 
2497.816720  	0.012347 
2499.745536  	0.012585 
2501.674352  	0.012708 
2503.603168  	0.012650 
2505.531984  	0.012667 
2507.460800  	0.012736 
2509.389616  	0.012724 
2511.318432  	0.012587 
2513.247248  	0.012674 
2515.176064  	0.012792 
2517.104880  	0.013050 
2519.033696  	0.013103 
2520.962512  	0.013089 
2522.891328  	0.013492 
2524.820144  	0.013699 
2526.748960  	0.013553 
2528.677776  	0.013569 
2530.606592  	0.013485 
2532.535408  	0.013320 
2534.464224  	0.013540 
2536.393040  	0.013726 
2538.321856  	0.013578 
2540.250672  	0.013739 
2542.179488  	0.013900 
2544.108304  	0.014003 
2546.037120  	0.013893 
2547.965936  	0.014108 
2549.894752  	0.014350 
2551.823568  	0.014358 
2553.752384  	0.014350 
2555.681200  	0.014422 
2557.610016  	0.014433 
2559.538832  	0.014424 
2561.467648  	0.014579 
2563.396464  	0.014879 
2565.325280  	0.014926 
2567.254096  	0.014807 
2569.182912  	0.014771 
2571.111728  	0.014800 
2573.040544  	0.014650 
2574.969360  	0.014492 
2576.898176  	0.014699 
2578.826992  	0.015078 
2580.755808  	0.015004 
2582.684624  	0.014908 
2584.613440  	0.014986 
2586.542256  	0.015294 
2588.471072  	0.015477 
2590.399888  	0.015542 
2592.328704  	0.015604 
2594.257520  	0.015718 
2596.186336  	0.015848 
2598.115152  	0.015931 
2600.043968  	0.015869 
2601.972784  	0.015981 
2603.901600  	0.016050 
2605.830416  	0.016088 
2607.759232  	0.015918 
2609.688048  	0.016066 
2611.616864  	0.016320 
2613.545680  	0.016437 
2615.474496  	0.016372 
2617.403312  	0.016334 
2619.332128  	0.016528 
2621.260944  	0.016683 
2623.189760  	0.016736 
2625.118576  	0.016809 
2627.047392  	0.016983 
2628.976208  	0.017281 
2630.905024  	0.017305 
2632.833840  	0.017294 
2634.762656  	0.017488 
2636.691472  	0.017513 
2638.620288  	0.017419 
2640.549104  	0.017523 
2642.477920  	0.017658 
2644.406736  	0.017722 
2646.335552  	0.018002 
2648.264368  	0.018196 
2650.193184  	0.018111 
2652.122000  	0.018262 
2654.050816  	0.018466 
2655.979632  	0.018413 
2657.908448  	0.018405 
2659.837264  	0.018446 
2661.766080  	0.018365 
2663.694896  	0.018485 
2665.623712  	0.018451 
2667.552528  	0.018357 
2669.481344  	0.018556 
2671.410160  	0.018806 
2673.338976  	0.018863 
2675.267792  	0.018929 
2677.196608  	0.019091 
2679.125424  	0.019235 
2681.054240  	0.019252 
2682.983056  	0.019328 
2684.911872  	0.019555 
2686.840688  	0.019686 
2688.769504  	0.019697 
2690.698320  	0.019675 
2692.627136  	0.019792 
2694.555952  	0.019898 
2696.484768  	0.019821 
2698.413584  	0.019959 
2700.342400  	0.020010 
2702.271216  	0.020072 
2704.200032  	0.020281 
2706.128848  	0.020415 
2708.057664  	0.020511 
2709.986480  	0.020605 
2711.915296  	0.020587 
2713.844112  	0.020648 
2715.772928  	0.020817 
2717.701744  	0.020967 
2719.630560  	0.020981 
2721.559376  	0.020930 
2723.488192  	0.020996 
2725.417008  	0.021234 
2727.345824  	0.021387 
2729.274640  	0.021370 
2731.203456  	0.021433 
2733.132272  	0.021647 
2735.061088  	0.021779 
2736.989904  	0.021871 
2738.918720  	0.021914 
2740.847536  	0.021922 
2742.776352  	0.022022 
2744.705168  	0.022192 
2746.633984  	0.022344 
2748.562800  	0.022430 
2750.491616  	0.022394 
2752.420432  	0.022332 
2754.349248  	0.022439 
2756.278064  	0.022518 
2758.206880  	0.022429 
2760.135696  	0.022551 
2762.064512  	0.022597 
2763.993328  	0.022616 
2765.922144  	0.022728 
2767.850960  	0.022818 
2769.779776  	0.022821 
2771.708592  	0.022803 
2773.637408  	0.022773 
2775.566224  	0.022921 
2777.495040  	0.022935 
2779.423856  	0.022965 
2781.352672  	0.023213 
2783.281488  	0.023407 
2785.210304  	0.023384 
2787.139120  	0.023464 
2789.067936  	0.023548 
2790.996752  	0.023534 
2792.925568  	0.023689 
2794.854384  	0.023858 
2796.783200  	0.023885 
2798.712016  	0.023817 
2800.640832  	0.023845 
2802.569648  	0.024061 
2804.498464  	0.024191 
2806.427280  	0.024134 
2808.356096  	0.024211 
2810.284912  	0.024457 
2812.213728  	0.024483 
2814.142544  	0.024460 
2816.071360  	0.024618 
2818.000176  	0.024658 
2819.928992  	0.024521 
2821.857808  	0.024526 
2823.786624  	0.024515 
2825.715440  	0.024556 
2827.644256  	0.024546 
2829.573072  	0.024564 
2831.501888  	0.024455 
2833.430704  	0.024392 
2835.359520  	0.024427 
2837.288336  	0.024335 
2839.217152  	0.024194 
2841.145968  	0.024069 
2843.074784  	0.023942 
2845.003600  	0.023946 
2846.932416  	0.023980 
2848.861232  	0.023924 
2850.790048  	0.023834 
2852.718864  	0.023741 
2854.647680  	0.023657 
2856.576496  	0.023663 
2858.505312  	0.023660 
2860.434128  	0.023615 
2862.362944  	0.023499 
2864.291760  	0.023428 
2866.220576  	0.023364 
2868.149392  	0.023478 
2870.078208  	0.023670 
2872.007024  	0.023892 
2873.935840  	0.024108 
2875.864656  	0.024317 
2877.793472  	0.024611 
2879.722288  	0.024894 
2881.651104  	0.025035 
2883.579920  	0.025087 
2885.508736  	0.025198 
2887.437552  	0.025339 
2889.366368  	0.025416 
2891.295184  	0.025368 
2893.224000  	0.025488 
2895.152816  	0.025616 
2897.081632  	0.025411 
2899.010448  	0.025033 
2900.939264  	0.024848 
2902.868080  	0.025174 
2904.796896  	0.025666 
2906.725712  	0.025845 
2908.654528  	0.025921 
2910.583344  	0.026104 
2912.512160  	0.026578 
2914.440976  	0.027108 
2916.369792  	0.027503 
2918.298608  	0.027848 
2920.227424  	0.028208 
2922.156240  	0.028775 
2924.085056  	0.029276 
2926.013872  	0.029851 
2927.942688  	0.030569 
2929.871504  	0.031177 
2931.800320  	0.031568 
2933.729136  	0.031879 
2935.657952  	0.032147 
2937.586768  	0.032537 
2939.515584  	0.032864 
2941.444400  	0.032980 
2943.373216  	0.033082 
2945.302032  	0.033199 
2947.230848  	0.033223 
2949.159664  	0.033044 
2951.088480  	0.032908 
2953.017296  	0.032858 
2954.946112  	0.032608 
2956.874928  	0.032317 
2958.803744  	0.031922 
2960.732560  	0.031618 
2962.661376  	0.031465 
2964.590192  	0.031191 
2966.519008  	0.030905 
2968.447824  	0.030589 
2970.376640  	0.030335 
2972.305456  	0.029965 
2974.234272  	0.029845 
2976.163088  	0.029806 
2978.091904  	0.029636 
2980.020720  	0.029523 
2981.949536  	0.029457 
2983.878352  	0.029231 
2985.807168  	0.028897 
2987.735984  	0.028865 
2989.664800  	0.029110 
2991.593616  	0.029732 
2993.522432  	0.030072 
2995.451248  	0.030095 
2997.380064  	0.030375 
2999.308880  	0.030944 
3001.237696  	0.031344 
3003.166512  	0.031627 
3005.095328  	0.031933 
3007.024144  	0.032414 
3008.952960  	0.032846 
3010.881776  	0.033299 
3012.810592  	0.033690 
3014.739408  	0.034072 
3016.668224  	0.034510 
3018.597040  	0.034854 
3020.525856  	0.035084 
3022.454672  	0.035384 
3024.383488  	0.035771 
3026.312304  	0.036101 
3028.241120  	0.036341 
3030.169936  	0.036492 
3032.098752  	0.036853 
3034.027568  	0.037086 
3035.956384  	0.037079 
3037.885200  	0.037274 
3039.814016  	0.037720 
3041.742832  	0.038171 
3043.671648  	0.038353 
3045.600464  	0.038439 
3047.529280  	0.038555 
3049.458096  	0.038707 
3051.386912  	0.038818 
3053.315728  	0.039100 
3055.244544  	0.039553 
3057.173360  	0.039913 
3059.102176  	0.040046 
3061.030992  	0.040192 
3062.959808  	0.040473 
3064.888624  	0.040772 
3066.817440  	0.041040 
3068.746256  	0.041186 
3070.675072  	0.041383 
3072.603888  	0.041851 
3074.532704  	0.042298 
3076.461520  	0.042601 
3078.390336  	0.042784 
3080.319152  	0.043037 
3082.247968  	0.043367 
3084.176784  	0.043740 
3086.105600  	0.043926 
3088.034416  	0.044103 
3089.963232  	0.044364 
3091.892048  	0.044648 
3093.820864  	0.044789 
3095.749680  	0.045009 
3097.678496  	0.045187 
3099.607312  	0.045464 
3101.536128  	0.045750 
3103.464944  	0.046057 
3105.393760  	0.046332 
3107.322576  	0.046492 
3109.251392  	0.046631 
3111.180208  	0.046822 
3113.109024  	0.046917 
3115.037840  	0.046998 
3116.966656  	0.047253 
3118.895472  	0.047568 
3120.824288  	0.047715 
3122.753104  	0.047882 
3124.681920  	0.048185 
3126.610736  	0.048348 
3128.539552  	0.048449 
3130.468368  	0.048348 
3132.397184  	0.048244 
3134.326000  	0.048517 
3136.254816  	0.048847 
3138.183632  	0.049062 
3140.112448  	0.049052 
3142.041264  	0.049062 
3143.970080  	0.049242 
3145.898896  	0.049517 
3147.827712  	0.049756 
3149.756528  	0.049993 
3151.685344  	0.050238 
3153.614160  	0.050525 
3155.542976  	0.050586 
3157.471792  	0.050599 
3159.400608  	0.051088 
3161.329424  	0.051455 
3163.258240  	0.051727 
3165.187056  	0.051823 
3167.115872  	0.051815 
3169.044688  	0.052036 
3170.973504  	0.052194 
3172.902320  	0.052122 
3174.831136  	0.052116 
3176.759952  	0.052319 
3178.688768  	0.052586 
3180.617584  	0.052713 
3182.546400  	0.052589 
3184.475216  	0.052780 
3186.404032  	0.052918 
3188.332848  	0.052986 
3190.261664  	0.053202 
3192.190480  	0.053213 
3194.119296  	0.052890 
3196.048112  	0.052922 
3197.976928  	0.053255 
3199.905744  	0.053369 
3201.834560  	0.053302 
3203.763376  	0.053187 
3205.692192  	0.053108 
3207.621008  	0.053083 
3209.549824  	0.053069 
3211.478640  	0.052979 
3213.407456  	0.052742 
3215.336272  	0.052693 
3217.265088  	0.052604 
3219.193904  	0.052474 
3221.122720  	0.052401 
3223.051536  	0.052099 
3224.980352  	0.051802 
3226.909168  	0.051598 
3228.837984  	0.051552 
3230.766800  	0.051585 
3232.695616  	0.051546 
3234.624432  	0.051433 
3236.553248  	0.051397 
3238.482064  	0.051389 
3240.410880  	0.051272 
3242.339696  	0.051213 
3244.268512  	0.051241 
3246.197328  	0.051228 
3248.126144  	0.051195 
3250.054960  	0.051173 
3251.983776  	0.051039 
3253.912592  	0.051093 
3255.841408  	0.051218 
3257.770224  	0.051357 
3259.699040  	0.051455 
3261.627856  	0.051450 
3263.556672  	0.051367 
3265.485488  	0.051281 
3267.414304  	0.051466 
3269.343120  	0.051734 
3271.271936  	0.052001 
3273.200752  	0.052094 
3275.129568  	0.051934 
3277.058384  	0.051909 
3278.987200  	0.052042 
3280.916016  	0.052104 
3282.844832  	0.052180 
3284.773648  	0.052183 
3286.702464  	0.052079 
3288.631280  	0.052226 
3290.560096  	0.052398 
3292.488912  	0.052588 
3294.417728  	0.052606 
3296.346544  	0.052632 
3298.275360  	0.052760 
3300.204176  	0.053112 
3302.132992  	0.053241 
3304.061808  	0.053382 
3305.990624  	0.053700 
3307.919440  	0.053692 
3309.848256  	0.053585 
3311.777072  	0.053562 
3313.705888  	0.053817 
3315.634704  	0.054284 
3317.563520  	0.054376 
3319.492336  	0.054333 
3321.421152  	0.054381 
3323.349968  	0.054466 
3325.278784  	0.054844 
3327.207600  	0.054991 
3329.136416  	0.054817 
3331.065232  	0.054669 
3332.994048  	0.054888 
3334.922864  	0.054982 
3336.851680  	0.054789 
3338.780496  	0.054523 
3340.709312  	0.054316 
3342.638128  	0.054274 
3344.566944  	0.054286 
3346.495760  	0.054182 
3348.424576  	0.054039 
3350.353392  	0.053755 
3352.282208  	0.053579 
3354.211024  	0.053469 
3356.139840  	0.053480 
3358.068656  	0.053308 
3359.997472  	0.052983 
3361.926288  	0.052762 
3363.855104  	0.052436 
3365.783920  	0.052043 
3367.712736  	0.051869 
3369.641552  	0.051606 
3371.570368  	0.051335 
3373.499184  	0.051073 
3375.428000  	0.050932 
3377.356816  	0.050841 
3379.285632  	0.050630 
3381.214448  	0.050467 
3383.143264  	0.050208 
3385.072080  	0.050014 
3387.000896  	0.049711 
3388.929712  	0.049440 
3390.858528  	0.049240 
3392.787344  	0.049064 
3394.716160  	0.048688 
3396.644976  	0.048333 
3398.573792  	0.048113 
3400.502608  	0.047711 
3402.431424  	0.047419 
3404.360240  	0.047130 
3406.289056  	0.046727 
3408.217872  	0.046495 
3410.146688  	0.046383 
3412.075504  	0.046430 
3414.004320  	0.046331 
3415.933136  	0.045804 
3417.861952  	0.045203 
3419.790768  	0.045091 
3421.719584  	0.044900 
3423.648400  	0.044339 
3425.577216  	0.044219 
3427.506032  	0.044136 
3429.434848  	0.043653 
3431.363664  	0.043331 
3433.292480  	0.043109 
3435.221296  	0.042898 
3437.150112  	0.042673 
3439.078928  	0.042561 
3441.007744  	0.042235 
3442.936560  	0.042006 
3444.865376  	0.041441 
3446.794192  	0.040663 
3448.723008  	0.040471 
3450.651824  	0.040277 
3452.580640  	0.039925 
3454.509456  	0.039671 
3456.438272  	0.039397 
3458.367088  	0.039075 
3460.295904  	0.038834 
3462.224720  	0.038340 
3464.153536  	0.037861 
3466.082352  	0.037643 
3468.011168  	0.037290 
3469.939984  	0.036769 
3471.868800  	0.036321 
3473.797616  	0.036195 
3475.726432  	0.035922 
3477.655248  	0.035375 
3479.584064  	0.034972 
3481.512880  	0.034666 
3483.441696  	0.034130 
3485.370512  	0.033469 
3487.299328  	0.033307 
3489.228144  	0.033035 
3491.156960  	0.032381 
3493.085776  	0.032076 
3495.014592  	0.031914 
3496.943408  	0.031637 
3498.872224  	0.031114 
3500.801040  	0.030606 
3502.729856  	0.030221 
3504.658672  	0.029920 
3506.587488  	0.029375 
3508.516304  	0.029070 
3510.445120  	0.029046 
3512.373936  	0.028836 
3514.302752  	0.028618 
3516.231568  	0.028187 
3518.160384  	0.027775 
3520.089200  	0.027525 
3522.018016  	0.027279 
3523.946832  	0.027161 
3525.875648  	0.026818 
3527.804464  	0.026280 
3529.733280  	0.025983 
3531.662096  	0.025792 
3533.590912  	0.025419 
3535.519728  	0.025252 
3537.448544  	0.025152 
3539.377360  	0.024631 
3541.306176  	0.024068 
3543.234992  	0.023741 
3545.163808  	0.023965 
3547.092624  	0.023882 
3549.021440  	0.023064 
3550.950256  	0.022466 
3552.879072  	0.022657 
3554.807888  	0.022590 
3556.736704  	0.022123 
3558.665520  	0.021927 
3560.594336  	0.021777 
3562.523152  	0.021165 
3564.451968  	0.020436 
3566.380784  	0.020368 
3568.309600  	0.020722 
3570.238416  	0.020332 
3572.167232  	0.019653 
3574.096048  	0.019109 
3576.024864  	0.018602 
3577.953680  	0.018319 
3579.882496  	0.018286 
3581.811312  	0.018043 
3583.740128  	0.017370 
3585.668944  	0.016747 
3587.597760  	0.017137 
3589.526576  	0.017111 
3591.455392  	0.015909 
3593.384208  	0.015438 
3595.313024  	0.015273 
3597.241840  	0.014685 
3599.170656  	0.013917 
3601.099472  	0.013717 
3603.028288  	0.013667 
3604.957104  	0.013086 
3606.885920  	0.012254 
3608.814736  	0.012369 
3610.743552  	0.011944 
3612.672368  	0.011280 
3614.601184  	0.011107 
3616.530000  	0.010151 
3618.458816  	0.009576 
3620.387632  	0.009941 
3622.316448  	0.009628 
3624.245264  	0.009044 
3626.174080  	0.007747 
3628.102896  	0.006591 
3630.031712  	0.007820 
3631.960528  	0.007764 
3633.889344  	0.007253 
3635.818160  	0.006695 
3637.746976  	0.006273 
3639.675792  	0.006313 
3641.604608  	0.006104 
3643.533424  	0.005408 
3645.462240  	0.003865 
3647.391056  	0.002343 
3649.319872  	0.001742 
3651.248688  	0.003267 
3653.177504  	0.003557 
3655.106320  	0.002588 
3657.035136  	0.002862 
3658.963952  	0.002923 
3660.892768  	0.002329 
3662.821584  	0.001883 
3664.750400  	0.001677 
3666.679216  	0.000748 
3668.608032  	-0.000730 
3670.536848  	-0.000514 
3672.465664  	-0.000511 
3674.394480  	-0.002080 
3676.323296  	-0.000612 
3678.252112  	0.000574 
3680.180928  	0.000842 
3682.109744  	0.000795 
3684.038560  	0.000262 
3685.967376  	-0.000819 
3687.896192  	-0.001911 
3689.825008  	-0.001668 
3691.753824  	-0.000747 
3693.682640  	-0.000001 
3695.611456  	0.000134 
3697.540272  	0.000223 
3699.469088  	-0.000098 
3701.397904  	0.000135 
3703.326720  	0.000635 
3705.255536  	0.000358 
3707.184352  	-0.000410 
3709.113168  	-0.001279 
3711.041984  	-0.001194 
3712.970800  	0.000311 
3714.899616  	0.001109 
3716.828432  	0.000865 
3718.757248  	0.000249 
3720.686064  	-0.000265 
3722.614880  	0.000052 
3724.543696  	0.000604 
3726.472512  	0.000968 
3728.401328  	0.000551 
3730.330144  	-0.000914 
3732.258960  	-0.001732 
3734.187776  	-0.000872 
3736.116592  	0.000815 
3738.045408  	0.000602 
3739.974224  	-0.000067 
3741.903040  	-0.000916 
3743.831856  	-0.000847 
3745.760672  	0.000505 
3747.689488  	-0.001101 
3749.618304  	-0.002196 
3751.547120  	-0.001093 
3753.475936  	0.001039 
3755.404752  	0.000748 
3757.333568  	-0.000066 
3759.262384  	0.000038 
3761.191200  	0.001050 
3763.120016  	0.001091 
3765.048832  	0.000869 
3766.977648  	0.000648 
3768.906464  	0.000299 
3770.835280  	0.001115 
3772.764096  	0.001663 
3774.692912  	0.001371 
3776.621728  	0.000664 
3778.550544  	0.000208 
3780.479360  	0.000996 
3782.408176  	0.001077 
3784.336992  	0.000767 
3786.265808  	0.001031 
3788.194624  	0.001185 
3790.123440  	0.001070 
3792.052256  	0.001031 
3793.981072  	0.000464 
3795.909888  	0.000027 
3797.838704  	0.000079 
3799.767520  	-0.001348 
3801.696336  	-0.001022 
3803.625152  	0.000173 
3805.553968  	-0.000471 
3807.482784  	0.000365 
3809.411600  	0.001264 
3811.340416  	0.001211 
3813.269232  	0.000366 
3815.198048  	-0.000730 
3817.126864  	-0.000430 
3819.055680  	-0.001359 
3820.984496  	-0.001214 
3822.913312  	0.000622 
3824.842128  	0.000410 
3826.770944  	0.000411 
3828.699760  	0.000442 
3830.628576  	-0.000033 
3832.557392  	0.000132 
3834.486208  	-0.000473 
3836.415024  	-0.001505 
3838.343840  	-0.000907 
3840.272656  	-0.000173 
3842.201472  	-0.000003 
3844.130288  	0.000548 
3846.059104  	0.001179 
3847.987920  	0.000671 
3849.916736  	-0.000645 
3851.845552  	-0.002500 
3853.774368  	-0.001039 
3855.703184  	0.000909 
3857.632000  	0.000833 
3859.560816  	0.000422 
3861.489632  	-0.000031 
3863.418448  	-0.000183 
3865.347264  	0.000442 
3867.276080  	0.000040 
3869.204896  	-0.000332 
3871.133712  	0.001106 
3873.062528  	0.000713 
3874.991344  	0.000943 
3876.920160  	0.000723 
3878.848976  	0.000265 
3880.777792  	0.000839 
3882.706608  	0.001010 
3884.635424  	0.000562 
3886.564240  	0.001339 
3888.493056  	0.000879 
3890.421872  	0.000494 
3892.350688  	0.001133 
3894.279504  	0.001244 
3896.208320  	0.000918 
3898.137136  	0.000567 
3900.065952  	0.000665 
3901.994768  	0.000531 
3903.923584  	0.000815 
3905.852400  	0.001580 
3907.781216  	0.001448 
3909.710032  	0.001083 
3911.638848  	0.001084 
3913.567664  	0.001132 
3915.496480  	0.001278 
3917.425296  	0.001844 
3919.354112  	0.001823 
3921.282928  	0.001766 
3923.211744  	0.001599 
3925.140560  	0.001694 
3927.069376  	0.001483 
3928.998192  	0.001120 
3930.927008  	0.001429 
3932.855824  	0.002007 
3934.784640  	0.001680 
3936.713456  	0.001566 
3938.642272  	0.001621 
3940.571088  	0.001358 
3942.499904  	0.001723 
3944.428720  	0.001876 
3946.357536  	0.001488 
3948.286352  	0.001496 
3950.215168  	0.001361 
3952.143984  	0.001162 
3954.072800  	0.001290 
3956.001616  	0.001361 
3957.930432  	0.001511 
3959.859248  	0.001821 
3961.788064  	0.001853 
3963.716880  	0.001629 
3965.645696  	0.001445 
3967.574512  	0.001518 
3969.503328  	0.001543 
3971.432144  	0.001442 
3973.360960  	0.001411 
3975.289776  	0.001695 
3977.218592  	0.001855 
3979.147408  	0.001847 
3981.076224  	0.001566 
3983.005040  	0.001448 
3984.933856  	0.001642 
3986.862672  	0.001767 
3988.791488  	0.001571 
3990.720304  	0.001556 
3992.649120  	0.001649 
3994.577936  	0.001635 
3996.506752  	0.001544 
3998.435568  	0.001500 
4000.364384  	0.001532 