##TITLE=No Description
##DATA TYPE=INFRARED SPECTRUM
##XUNITS=1/CM
##YUNITS=Abs
399.264912  	0.549710 
401.193728  	0.556538 
403.122544  	0.551543 
405.051360  	0.534773 
406.980176  	0.531587 
408.908992  	0.530538 
410.837808  	0.532818 
412.766624  	0.523058 
414.695440  	0.515699 
416.624256  	0.501099 
418.553072  	0.500479 
420.481888  	0.508012 
422.410704  	0.511445 
424.339520  	0.503168 
426.268336  	0.507456 
428.197152  	0.502425 
430.125968  	0.498230 
432.054784  	0.490954 
433.983600  	0.487515 
435.912416  	0.474484 
437.841232  	0.474274 
439.770048  	0.482094 
441.698864  	0.484151 
443.627680  	0.477279 
445.556496  	0.474048 
447.485312  	0.470121 
449.414128  	0.470790 
451.342944  	0.468834 
453.271760  	0.471867 
455.200576  	0.470761 
457.129392  	0.468137 
459.058208  	0.462371 
460.987024  	0.467333 
462.915840  	0.464021 
464.844656  	0.461928 
466.773472  	0.462790 
468.702288  	0.468345 
470.631104  	0.467017 
472.559920  	0.466093 
474.488736  	0.457991 
476.417552  	0.457527 
478.346368  	0.459187 
480.275184  	0.460902 
482.204000  	0.459326 
484.132816  	0.462273 
486.061632  	0.457003 
487.990448  	0.456074 
489.919264  	0.454405 
491.848080  	0.453039 
493.776896  	0.450266 
495.705712  	0.451085 
497.634528  	0.452863 
499.563344  	0.452254 
501.492160  	0.446480 
503.420976  	0.449716 
505.349792  	0.450413 
507.278608  	0.449055 
509.207424  	0.447102 
511.136240  	0.449155 
513.065056  	0.451326 
514.993872  	0.451293 
516.922688  	0.447937 
518.851504  	0.447063 
520.780320  	0.445689 
522.709136  	0.448034 
524.637952  	0.447179 
526.566768  	0.444724 
528.495584  	0.441863 
530.424400  	0.439563 
532.353216  	0.436335 
534.282032  	0.433966 
536.210848  	0.429943 
538.139664  	0.427021 
540.068480  	0.423864 
541.997296  	0.420942 
543.926112  	0.415554 
545.854928  	0.412840 
547.783744  	0.409569 
549.712560  	0.406456 
551.641376  	0.403544 
553.570192  	0.400803 
555.499008  	0.397038 
557.427824  	0.394167 
559.356640  	0.390093 
561.285456  	0.388000 
563.214272  	0.385664 
565.143088  	0.382580 
567.071904  	0.378796 
569.000720  	0.376316 
570.929536  	0.373039 
572.858352  	0.369396 
574.787168  	0.366229 
576.715984  	0.363699 
578.644800  	0.360297 
580.573616  	0.357389 
582.502432  	0.353788 
584.431248  	0.351447 
586.360064  	0.349498 
588.288880  	0.348019 
590.217696  	0.346153 
592.146512  	0.345027 
594.075328  	0.342425 
596.004144  	0.339963 
597.932960  	0.338184 
599.861776  	0.337754 
601.790592  	0.336924 
603.719408  	0.335608 
605.648224  	0.333727 
607.577040  	0.333153 
609.505856  	0.332787 
611.434672  	0.332099 
613.363488  	0.329931 
615.292304  	0.328026 
617.221120  	0.326091 
619.149936  	0.325048 
621.078752  	0.323287 
623.007568  	0.320740 
624.936384  	0.318150 
626.865200  	0.317499 
628.794016  	0.316648 
630.722832  	0.315226 
632.651648  	0.313835 
634.580464  	0.313554 
636.509280  	0.313584 
638.438096  	0.313190 
640.366912  	0.312414 
642.295728  	0.310650 
644.224544  	0.307827 
646.153360  	0.304468 
648.082176  	0.300507 
650.010992  	0.298259 
651.939808  	0.295887 
653.868624  	0.292898 
655.797440  	0.289431 
657.726256  	0.286905 
659.655072  	0.283556 
661.583888  	0.280388 
663.512704  	0.277235 
665.441520  	0.274544 
667.370336  	0.269510 
669.299152  	0.266130 
671.227968  	0.265843 
673.156784  	0.263954 
675.085600  	0.261631 
677.014416  	0.259863 
678.943232  	0.259064 
680.872048  	0.257491 
682.800864  	0.255955 
684.729680  	0.254419 
686.658496  	0.252015 
688.587312  	0.250142 
690.516128  	0.248806 
692.444944  	0.247879 
694.373760  	0.246421 
696.302576  	0.245068 
698.231392  	0.243302 
700.160208  	0.241191 
702.089024  	0.238664 
704.017840  	0.236991 
705.946656  	0.234428 
707.875472  	0.231874 
709.804288  	0.229894 
711.733104  	0.228331 
713.661920  	0.227082 
715.590736  	0.226517 
717.519552  	0.226091 
719.448368  	0.226538 
721.377184  	0.227364 
723.306000  	0.227573 
725.234816  	0.226910 
727.163632  	0.225542 
729.092448  	0.223471 
731.021264  	0.221235 
732.950080  	0.218713 
734.878896  	0.216313 
736.807712  	0.214255 
738.736528  	0.212482 
740.665344  	0.211087 
742.594160  	0.209917 
744.522976  	0.208505 
746.451792  	0.207454 
748.380608  	0.206417 
750.309424  	0.205811 
752.238240  	0.205031 
754.167056  	0.204686 
756.095872  	0.203817 
758.024688  	0.202611 
759.953504  	0.201747 
761.882320  	0.201463 
763.811136  	0.201460 
765.739952  	0.200972 
767.668768  	0.199873 
769.597584  	0.198599 
771.526400  	0.198571 
773.455216  	0.200163 
775.384032  	0.202136 
777.312848  	0.204837 
779.241664  	0.207800 
781.170480  	0.208213 
783.099296  	0.205303 
785.028112  	0.201131 
786.956928  	0.196269 
788.885744  	0.191821 
790.814560  	0.188424 
792.743376  	0.186342 
794.672192  	0.184533 
796.601008  	0.183785 
798.529824  	0.182720 
800.458640  	0.180077 
802.387456  	0.177038 
804.316272  	0.175701 
806.245088  	0.175143 
808.173904  	0.174560 
810.102720  	0.174086 
812.031536  	0.173665 
813.960352  	0.173369 
815.889168  	0.173159 
817.817984  	0.172885 
819.746800  	0.172469 
821.675616  	0.171984 
823.604432  	0.171673 
825.533248  	0.170764 
827.462064  	0.169655 
829.390880  	0.168799 
831.319696  	0.167792 
833.248512  	0.166509 
835.177328  	0.164914 
837.106144  	0.162760 
839.034960  	0.160265 
840.963776  	0.157638 
842.892592  	0.155621 
844.821408  	0.153298 
846.750224  	0.150891 
848.679040  	0.148982 
850.607856  	0.146963 
852.536672  	0.145076 
854.465488  	0.143320 
856.394304  	0.141768 
858.323120  	0.140432 
860.251936  	0.139107 
862.180752  	0.137487 
864.109568  	0.136072 
866.038384  	0.134855 
867.967200  	0.133346 
869.896016  	0.132100 
871.824832  	0.130843 
873.753648  	0.129977 
875.682464  	0.129917 
877.611280  	0.130144 
879.540096  	0.130437 
881.468912  	0.131040 
883.397728  	0.131498 
885.326544  	0.131598 
887.255360  	0.131419 
889.184176  	0.131053 
891.112992  	0.130168 
893.041808  	0.128697 
894.970624  	0.126851 
896.899440  	0.124700 
898.828256  	0.121986 
900.757072  	0.119167 
902.685888  	0.116511 
904.614704  	0.114845 
906.543520  	0.114257 
908.472336  	0.114865 
910.401152  	0.116504 
912.329968  	0.118633 
914.258784  	0.121042 
916.187600  	0.123169 
918.116416  	0.124562 
920.045232  	0.125259 
921.974048  	0.125030 
923.902864  	0.124325 
925.831680  	0.123346 
927.760496  	0.122342 
929.689312  	0.121549 
931.618128  	0.121400 
933.546944  	0.121639 
935.475760  	0.121963 
937.404576  	0.122118 
939.333392  	0.122526 
941.262208  	0.123639 
943.191024  	0.125422 
945.119840  	0.128218 
947.048656  	0.131731 
948.977472  	0.136030 
950.906288  	0.141126 
952.835104  	0.146476 
954.763920  	0.151836 
956.692736  	0.157076 
958.621552  	0.161587 
960.550368  	0.164559 
962.479184  	0.166024 
964.408000  	0.165139 
966.336816  	0.162502 
968.265632  	0.157814 
970.194448  	0.151670 
972.123264  	0.144573 
974.052080  	0.137084 
975.980896  	0.129438 
977.909712  	0.122196 
979.838528  	0.116117 
981.767344  	0.111239 
983.696160  	0.107960 
985.624976  	0.106276 
987.553792  	0.106327 
989.482608  	0.108136 
991.411424  	0.111460 
993.340240  	0.115980 
995.269056  	0.121543 
997.197872  	0.127604 
999.126688  	0.133381 
1001.055504  	0.139109 
1002.984320  	0.144576 
1004.913136  	0.149833 
1006.841952  	0.154297 
1008.770768  	0.158140 
1010.699584  	0.160919 
1012.628400  	0.162649 
1014.557216  	0.163892 
1016.486032  	0.164513 
1018.414848  	0.164537 
1020.343664  	0.164773 
1022.272480  	0.165065 
1024.201296  	0.164905 
1026.130112  	0.164285 
1028.058928  	0.164448 
1029.987744  	0.165414 
1031.916560  	0.166863 
1033.845376  	0.168769 
1035.774192  	0.170594 
1037.703008  	0.172894 
1039.631824  	0.177076 
1041.560640  	0.182348 
1043.489456  	0.189398 
1045.418272  	0.198023 
1047.347088  	0.208202 
1049.275904  	0.219157 
1051.204720  	0.230311 
1053.133536  	0.239987 
1055.062352  	0.247343 
1056.991168  	0.251698 
1058.919984  	0.254712 
1060.848800  	0.255595 
1062.777616  	0.254812 
1064.706432  	0.251442 
1066.635248  	0.247588 
1068.564064  	0.243691 
1070.492880  	0.238889 
1072.421696  	0.233083 
1074.350512  	0.227987 
1076.279328  	0.223809 
1078.208144  	0.220567 
1080.136960  	0.217903 
1082.065776  	0.215486 
1083.994592  	0.212868 
1085.923408  	0.210625 
1087.852224  	0.207611 
1089.781040  	0.204189 
1091.709856  	0.199572 
1093.638672  	0.194015 
1095.567488  	0.187151 
1097.496304  	0.179930 
1099.425120  	0.172310 
1101.353936  	0.164465 
1103.282752  	0.156628 
1105.211568  	0.148766 
1107.140384  	0.140732 
1109.069200  	0.132754 
1110.998016  	0.125415 
1112.926832  	0.118804 
1114.855648  	0.112506 
1116.784464  	0.106180 
1118.713280  	0.100611 
1120.642096  	0.095466 
1122.570912  	0.090313 
1124.499728  	0.085719 
1126.428544  	0.081222 
1128.357360  	0.076780 
1130.286176  	0.072885 
1132.214992  	0.069603 
1134.143808  	0.066670 
1136.072624  	0.063861 
1138.001440  	0.061298 
1139.930256  	0.058828 
1141.859072  	0.056668 
1143.787888  	0.054570 
1145.716704  	0.052953 
1147.645520  	0.051585 
1149.574336  	0.050652 
1151.503152  	0.050130 
1153.431968  	0.049983 
1155.360784  	0.049952 
1157.289600  	0.050337 
1159.218416  	0.051053 
1161.147232  	0.052016 
1163.076048  	0.052867 
1165.004864  	0.054060 
1166.933680  	0.055435 
1168.862496  	0.057155 
1170.791312  	0.059107 
1172.720128  	0.060948 
1174.648944  	0.062675 
1176.577760  	0.064715 
1178.506576  	0.066816 
1180.435392  	0.068892 
1182.364208  	0.070990 
1184.293024  	0.073389 
1186.221840  	0.075913 
1188.150656  	0.078702 
1190.079472  	0.081804 
1192.008288  	0.085340 
1193.937104  	0.089224 
1195.865920  	0.093658 
1197.794736  	0.098174 
1199.723552  	0.103277 
1201.652368  	0.108773 
1203.581184  	0.114294 
1205.510000  	0.119454 
1207.438816  	0.124795 
1209.367632  	0.129872 
1211.296448  	0.134391 
1213.225264  	0.138558 
1215.154080  	0.142007 
1217.082896  	0.144967 
1219.011712  	0.147219 
1220.940528  	0.149263 
1222.869344  	0.150737 
1224.798160  	0.151637 
1226.726976  	0.152022 
1228.655792  	0.152122 
1230.584608  	0.151632 
1232.513424  	0.150664 
1234.442240  	0.148633 
1236.371056  	0.146075 
1238.299872  	0.143062 
1240.228688  	0.139152 
1242.157504  	0.134565 
1244.086320  	0.129871 
1246.015136  	0.124672 
1247.943952  	0.119290 
1249.872768  	0.113953 
1251.801584  	0.108837 
1253.730400  	0.103718 
1255.659216  	0.098829 
1257.588032  	0.094019 
1259.516848  	0.089532 
1261.445664  	0.085498 
1263.374480  	0.081818 
1265.303296  	0.078557 
1267.232112  	0.075853 
1269.160928  	0.073959 
1271.089744  	0.072897 
1273.018560  	0.072463 
1274.947376  	0.072436 
1276.876192  	0.072509 
1278.805008  	0.072122 
1280.733824  	0.070832 
1282.662640  	0.068448 
1284.591456  	0.065294 
1286.520272  	0.062147 
1288.449088  	0.059587 
1290.377904  	0.057427 
1292.306720  	0.055608 
1294.235536  	0.053671 
1296.164352  	0.051141 
1298.093168  	0.048130 
1300.021984  	0.045244 
1301.950800  	0.042676 
1303.879616  	0.040644 
1305.808432  	0.039051 
1307.737248  	0.037821 
1309.666064  	0.036767 
1311.594880  	0.036321 
1313.523696  	0.036216 
1315.452512  	0.036207 
1317.381328  	0.036547 
1319.310144  	0.037232 
1321.238960  	0.037900 
1323.167776  	0.038564 
1325.096592  	0.038953 
1327.025408  	0.039032 
1328.954224  	0.038614 
1330.883040  	0.037904 
1332.811856  	0.037021 
1334.740672  	0.036382 
1336.669488  	0.035685 
1338.598304  	0.035202 
1340.527120  	0.034706 
1342.455936  	0.034148 
1344.384752  	0.034088 
1346.313568  	0.034699 
1348.242384  	0.035745 
1350.171200  	0.037195 
1352.100016  	0.038745 
1354.028832  	0.040302 
1355.957648  	0.041999 
1357.886464  	0.043636 
1359.815280  	0.044915 
1361.744096  	0.046186 
1363.672912  	0.047497 
1365.601728  	0.048147 
1367.530544  	0.048505 
1369.459360  	0.048657 
1371.388176  	0.047998 
1373.316992  	0.046889 
1375.245808  	0.045701 
1377.174624  	0.044479 
1379.103440  	0.042987 
1381.032256  	0.041604 
1382.961072  	0.040524 
1384.889888  	0.039807 
1386.818704  	0.039166 
1388.747520  	0.038417 
1390.676336  	0.037315 
1392.605152  	0.035805 
1394.533968  	0.035076 
1396.462784  	0.035931 
1398.391600  	0.036286 
1400.320416  	0.036894 
1402.249232  	0.037302 
1404.178048  	0.038116 
1406.106864  	0.039313 
1408.035680  	0.040721 
1409.964496  	0.042275 
1411.893312  	0.044082 
1413.822128  	0.045491 
1415.750944  	0.046732 
1417.679760  	0.047135 
1419.608576  	0.047190 
1421.537392  	0.047066 
1423.466208  	0.046429 
1425.395024  	0.045510 
1427.323840  	0.044259 
1429.252656  	0.042691 
1431.181472  	0.041727 
1433.110288  	0.041387 
1435.039104  	0.041050 
1436.967920  	0.041328 
1438.896736  	0.041986 
1440.825552  	0.042252 
1442.754368  	0.042592 
1444.683184  	0.042550 
1446.612000  	0.042318 
1448.540816  	0.042376 
1450.469632  	0.042641 
1452.398448  	0.042646 
1454.327264  	0.042352 
1456.256080  	0.041375 
1458.184896  	0.041821 
1460.113712  	0.043025 
1462.042528  	0.043546 
1463.971344  	0.043440 
1465.900160  	0.045008 
1467.828976  	0.046948 
1469.757792  	0.048431 
1471.686608  	0.050022 
1473.615424  	0.053813 
1475.544240  	0.056690 
1477.473056  	0.058828 
1479.401872  	0.059540 
1481.330688  	0.059778 
1483.259504  	0.059646 
1485.188320  	0.058650 
1487.117136  	0.056663 
1489.045952  	0.054679 
1490.974768  	0.052505 
1492.903584  	0.050387 
1494.832400  	0.047484 
1496.761216  	0.044415 
1498.690032  	0.042352 
1500.618848  	0.041299 
1502.547664  	0.039805 
1504.476480  	0.037155 
1506.405296  	0.034735 
1508.334112  	0.036318 
1510.262928  	0.036548 
1512.191744  	0.035849 
1514.120560  	0.034872 
1516.049376  	0.034196 
1517.978192  	0.034195 
1519.907008  	0.034248 
1521.835824  	0.035532 
1523.764640  	0.038477 
1525.693456  	0.040851 
1527.622272  	0.042974 
1529.551088  	0.044259 
1531.479904  	0.044569 
1533.408720  	0.044075 
1535.337536  	0.044075 
1537.266352  	0.041868 
1539.195168  	0.037352 
1541.123984  	0.035925 
1543.052800  	0.037510 
1544.981616  	0.037898 
1546.910432  	0.037457 
1548.839248  	0.036711 
1550.768064  	0.036739 
1552.696880  	0.036309 
1554.625696  	0.036210 
1556.554512  	0.034875 
1558.483328  	0.033219 
1560.412144  	0.038700 
1562.340960  	0.041918 
1564.269776  	0.043400 
1566.198592  	0.045975 
1568.127408  	0.047681 
1570.056224  	0.051226 
1571.985040  	0.054958 
1573.913856  	0.056136 
1575.842672  	0.056424 
1577.771488  	0.058885 
1579.700304  	0.059679 
1581.629120  	0.059931 
1583.557936  	0.060368 
1585.486752  	0.061640 
1587.415568  	0.063654 
1589.344384  	0.066876 
1591.273200  	0.070501 
1593.202016  	0.074655 
1595.130832  	0.078576 
1597.059648  	0.082401 
1598.988464  	0.085273 
1600.917280  	0.087557 
1602.846096  	0.088723 
1604.774912  	0.089390 
1606.703728  	0.088980 
1608.632544  	0.088607 
1610.561360  	0.088261 
1612.490176  	0.088371 
1614.418992  	0.087603 
1616.347808  	0.087862 
1618.276624  	0.091434 
1620.205440  	0.095003 
1622.134256  	0.097752 
1624.063072  	0.103391 
1625.991888  	0.108519 
1627.920704  	0.114017 
1629.849520  	0.120405 
1631.778336  	0.125392 
1633.707152  	0.128137 
1635.635968  	0.132830 
1637.564784  	0.139446 
1639.493600  	0.143162 
1641.422416  	0.145715 
1643.351232  	0.146952 
1645.280048  	0.146350 
1647.208864  	0.147245 
1649.137680  	0.148659 
1651.066496  	0.146760 
1652.995312  	0.143874 
1654.924128  	0.146894 
1656.852944  	0.146767 
1658.781760  	0.145856 
1660.710576  	0.144184 
1662.639392  	0.142904 
1664.568208  	0.142902 
1666.497024  	0.142002 
1668.425840  	0.139995 
1670.354656  	0.139425 
1672.283472  	0.139550 
1674.212288  	0.138960 
1676.141104  	0.139810 
1678.069920  	0.140737 
1679.998736  	0.140986 
1681.927552  	0.140188 
1683.856368  	0.138790 
1685.785184  	0.141416 
1687.714000  	0.141445 
1689.642816  	0.140316 
1691.571632  	0.138771 
1693.500448  	0.136420 
1695.429264  	0.132513 
1697.358080  	0.129215 
1699.286896  	0.125248 
1701.215712  	0.122089 
1703.144528  	0.119538 
1705.073344  	0.115188 
1707.002160  	0.111024 
1708.930976  	0.107362 
1710.859792  	0.102968 
1712.788608  	0.097912 
1714.717424  	0.092310 
1716.646240  	0.086112 
1718.575056  	0.080954 
1720.503872  	0.077045 
1722.432688  	0.072780 
1724.361504  	0.067709 
1726.290320  	0.063001 
1728.219136  	0.058134 
1730.147952  	0.053445 
1732.076768  	0.048727 
1734.005584  	0.043598 
1735.934400  	0.039659 
1737.863216  	0.036614 
1739.792032  	0.032250 
1741.720848  	0.029406 
1743.649664  	0.026751 
1745.578480  	0.024169 
1747.507296  	0.021291 
1749.436112  	0.019426 
1751.364928  	0.018578 
1753.293744  	0.017846 
1755.222560  	0.016314 
1757.151376  	0.015359 
1759.080192  	0.014467 
1761.009008  	0.013826 
1762.937824  	0.013444 
1764.866640  	0.013295 
1766.795456  	0.012595 
1768.724272  	0.012219 
1770.653088  	0.010504 
1772.581904  	0.009946 
1774.510720  	0.010815 
1776.439536  	0.011383 
1778.368352  	0.011219 
1780.297168  	0.011090 
1782.225984  	0.010846 
1784.154800  	0.010824 
1786.083616  	0.010826 
1788.012432  	0.010728 
1789.941248  	0.009934 
1791.870064  	0.009384 
1793.798880  	0.009555 
1795.727696  	0.010219 
1797.656512  	0.009816 
1799.585328  	0.009325 
1801.514144  	0.009254 
1803.442960  	0.009314 
1805.371776  	0.008997 
1807.300592  	0.009091 
1809.229408  	0.008706 
1811.158224  	0.008751 
1813.087040  	0.008814 
1815.015856  	0.008767 
1816.944672  	0.008582 
1818.873488  	0.008773 
1820.802304  	0.008710 
1822.731120  	0.008662 
1824.659936  	0.008434 
1826.588752  	0.008552 
1828.517568  	0.008111 
1830.446384  	0.008757 
1832.375200  	0.009211 
1834.304016  	0.008989 
1836.232832  	0.008687 
1838.161648  	0.009081 
1840.090464  	0.009052 
1842.019280  	0.008587 
1843.948096  	0.007905 
1845.876912  	0.008607 
1847.805728  	0.008877 
1849.734544  	0.009026 
1851.663360  	0.008777 
1853.592176  	0.008723 
1855.520992  	0.008590 
1857.449808  	0.009168 
1859.378624  	0.009159 
1861.307440  	0.008899 
1863.236256  	0.008669 
1865.165072  	0.008677 
1867.093888  	0.008518 
1869.022704  	0.009015 
1870.951520  	0.008841 
1872.880336  	0.008942 
1874.809152  	0.008950 
1876.737968  	0.008950 
1878.666784  	0.008415 
1880.595600  	0.008736 
1882.524416  	0.008865 
1884.453232  	0.008749 
1886.382048  	0.008452 
1888.310864  	0.008621 
1890.239680  	0.008906 
1892.168496  	0.008999 
1894.097312  	0.008405 
1896.026128  	0.008879 
1897.954944  	0.008997 
1899.883760  	0.009088 
1901.812576  	0.008979 
1903.741392  	0.008986 
1905.670208  	0.008805 
1907.599024  	0.008827 
1909.527840  	0.008489 
1911.456656  	0.008639 
1913.385472  	0.008858 
1915.314288  	0.009458 
1917.243104  	0.009120 
1919.171920  	0.008895 
1921.100736  	0.008996 
1923.029552  	0.009438 
1924.958368  	0.008845 
1926.887184  	0.009002 
1928.816000  	0.008883 
1930.744816  	0.008567 
1932.673632  	0.008207 
1934.602448  	0.008495 
1936.531264  	0.009157 
1938.460080  	0.009477 
1940.388896  	0.008743 
1942.317712  	0.008323 
1944.246528  	0.008458 
1946.175344  	0.009189 
1948.104160  	0.008785 
1950.032976  	0.008936 
1951.961792  	0.009233 
1953.890608  	0.009016 
1955.819424  	0.008104 
1957.748240  	0.008332 
1959.677056  	0.008615 
1961.605872  	0.009218 
1963.534688  	0.008888 
1965.463504  	0.010386 
1967.392320  	0.009636 
1969.321136  	0.008682 
1971.249952  	0.009278 
1973.178768  	0.010745 
1975.107584  	0.009783 
1977.036400  	0.009152 
1978.965216  	0.010234 
1980.894032  	0.010468 
1982.822848  	0.008564 
1984.751664  	0.008760 
1986.680480  	0.009276 
1988.609296  	0.009132 
1990.538112  	0.008466 
1992.466928  	0.008870 
1994.395744  	0.008147 
1996.324560  	0.008409 
1998.253376  	0.007802 
2000.182192  	0.007582 
2002.111008  	0.007911 
2004.039824  	0.008512 
2005.968640  	0.008078 
2007.897456  	0.008229 
2009.826272  	0.007699 
2011.755088  	0.007356 
2013.683904  	0.007571 
2015.612720  	0.008919 
2017.541536  	0.008533 
2019.470352  	0.008052 
2021.399168  	0.007744 
2023.327984  	0.008355 
2025.256800  	0.008187 
2027.185616  	0.007831 
2029.114432  	0.006825 
2031.043248  	0.007966 
2032.972064  	0.008485 
2034.900880  	0.008955 
2036.829696  	0.008552 
2038.758512  	0.008704 
2040.687328  	0.008648 
2042.616144  	0.008346 
2044.544960  	0.008260 
2046.473776  	0.008511 
2048.402592  	0.008295 
2050.331408  	0.009483 
2052.260224  	0.009096 
2054.189040  	0.008542 
2056.117856  	0.007855 
2058.046672  	0.007845 
2059.975488  	0.007553 
2061.904304  	0.008173 
2063.833120  	0.009125 
2065.761936  	0.009016 
2067.690752  	0.007971 
2069.619568  	0.007620 
2071.548384  	0.007037 
2073.477200  	0.007368 
2075.406016  	0.008001 
2077.334832  	0.008088 
2079.263648  	0.007602 
2081.192464  	0.007660 
2083.121280  	0.008148 
2085.050096  	0.008501 
2086.978912  	0.008099 
2088.907728  	0.007920 
2090.836544  	0.007413 
2092.765360  	0.007373 
2094.694176  	0.007599 
2096.622992  	0.007827 
2098.551808  	0.007617 
2100.480624  	0.007608 
2102.409440  	0.007455 
2104.338256  	0.007897 
2106.267072  	0.008126 
2108.195888  	0.008196 
2110.124704  	0.008577 
2112.053520  	0.008979 
2113.982336  	0.008665 
2115.911152  	0.008448 
2117.839968  	0.007804 
2119.768784  	0.007440 
2121.697600  	0.007406 
2123.626416  	0.007195 
2125.555232  	0.006824 
2127.484048  	0.007342 
2129.412864  	0.007108 
2131.341680  	0.006144 
2133.270496  	0.006309 
2135.199312  	0.006837 
2137.128128  	0.007133 
2139.056944  	0.007226 
2140.985760  	0.006292 
2142.914576  	0.007013 
2144.843392  	0.007286 
2146.772208  	0.007190 
2148.701024  	0.006643 
2150.629840  	0.006596 
2152.558656  	0.005130 
2154.487472  	0.004324 
2156.416288  	0.003931 
2158.345104  	0.006184 
2160.273920  	0.008572 
2162.202736  	0.009490 
2164.131552  	0.009142 
2166.060368  	0.009652 
2167.989184  	0.008528 
2169.918000  	0.007520 
2171.846816  	0.007276 
2173.775632  	0.007504 
2175.704448  	0.008122 
2177.633264  	0.009205 
2179.562080  	0.008801 
2181.490896  	0.007566 
2183.419712  	0.007318 
2185.348528  	0.007920 
2187.277344  	0.007848 
2189.206160  	0.007827 
2191.134976  	0.008123 
2193.063792  	0.009228 
2194.992608  	0.009478 
2196.921424  	0.009145 
2198.850240  	0.008981 
2200.779056  	0.008259 
2202.707872  	0.008052 
2204.636688  	0.008517 
2206.565504  	0.008522 
2208.494320  	0.008675 
2210.423136  	0.007129 
2212.351952  	0.007019 
2214.280768  	0.007677 
2216.209584  	0.008040 
2218.138400  	0.008362 
2220.067216  	0.008120 
2221.996032  	0.007825 
2223.924848  	0.007966 
2225.853664  	0.008444 
2227.782480  	0.008589 
2229.711296  	0.008469 
2231.640112  	0.008655 
2233.568928  	0.008330 
2235.497744  	0.008184 
2237.426560  	0.007514 
2239.355376  	0.007624 
2241.284192  	0.007612 
2243.213008  	0.007653 
2245.141824  	0.007834 
2247.070640  	0.007418 
2248.999456  	0.007407 
2250.928272  	0.008017 
2252.857088  	0.007865 
2254.785904  	0.007727 
2256.714720  	0.008334 
2258.643536  	0.008691 
2260.572352  	0.008284 
2262.501168  	0.008002 
2264.429984  	0.008189 
2266.358800  	0.008775 
2268.287616  	0.008570 
2270.216432  	0.008084 
2272.145248  	0.007694 
2274.074064  	0.008061 
2276.002880  	0.008087 
2277.931696  	0.008663 
2279.860512  	0.009135 
2281.789328  	0.009241 
2283.718144  	0.009364 
2285.646960  	0.009723 
2287.575776  	0.009918 
2289.504592  	0.009615 
2291.433408  	0.009202 
2293.362224  	0.009208 
2295.291040  	0.009251 
2297.219856  	0.009478 
2299.148672  	0.009544 
2301.077488  	0.009543 
2303.006304  	0.009725 
2304.935120  	0.009609 
2306.863936  	0.009301 
2308.792752  	0.009334 
2310.721568  	0.009334 
2312.650384  	0.008868 
2314.579200  	0.008398 
2316.508016  	0.008223 
2318.436832  	0.007927 
2320.365648  	0.007553 
2322.294464  	0.007019 
2324.223280  	0.006014 
2326.152096  	0.004459 
2328.080912  	0.003451 
2330.009728  	0.002739 
2331.938544  	0.002170 
2333.867360  	0.001103 
2335.796176  	0.000341 
2337.724992  	0.000021 
2339.653808  	0.000026 
2341.582624  	0.000326 
2343.511440  	0.001220 
2345.440256  	0.002894 
2347.369072  	0.005200 
2349.297888  	0.005479 
2351.226704  	0.003588 
2353.155520  	0.001131 
2355.084336  	-0.001252 
2357.013152  	-0.002927 
2358.941968  	-0.003735 
2360.870784  	-0.004128 
2362.799600  	-0.003374 
2364.728416  	-0.002580 
2366.657232  	-0.001119 
2368.586048  	0.000680 
2370.514864  	0.002438 
2372.443680  	0.004096 
2374.372496  	0.006052 
2376.301312  	0.007716 
2378.230128  	0.009068 
2380.158944  	0.009586 
2382.087760  	0.009735 
2384.016576  	0.009806 
2385.945392  	0.009910 
2387.874208  	0.009623 
2389.803024  	0.009415 
2391.731840  	0.009401 
2393.660656  	0.009471 
2395.589472  	0.009483 
2397.518288  	0.009477 
2399.447104  	0.009388 
2401.375920  	0.009305 
2403.304736  	0.009397 
2405.233552  	0.009549 
2407.162368  	0.009712 
2409.091184  	0.009785 
2411.020000  	0.009803 
2412.948816  	0.009923 
2414.877632  	0.009882 
2416.806448  	0.009910 
2418.735264  	0.010179 
2420.664080  	0.009977 
2422.592896  	0.009720 
2424.521712  	0.009811 
2426.450528  	0.009887 
2428.379344  	0.010001 
2430.308160  	0.010209 
2432.236976  	0.010302 
2434.165792  	0.010413 
2436.094608  	0.010729 
2438.023424  	0.010872 
2439.952240  	0.010964 
2441.881056  	0.010986 
2443.809872  	0.010897 
2445.738688  	0.010849 
2447.667504  	0.010883 
2449.596320  	0.010954 
2451.525136  	0.010986 
2453.453952  	0.010796 
2455.382768  	0.010981 
2457.311584  	0.011365 
2459.240400  	0.011277 
2461.169216  	0.011013 
2463.098032  	0.011143 
2465.026848  	0.011212 
2466.955664  	0.011108 
2468.884480  	0.010965 
2470.813296  	0.011041 
2472.742112  	0.011056 
2474.670928  	0.010960 
2476.599744  	0.011105 
2478.528560  	0.011304 
2480.457376  	0.011338 
2482.386192  	0.011263 
2484.315008  	0.011152 
2486.243824  	0.011211 
2488.172640  	0.011232 
2490.101456  	0.011499 
2492.030272  	0.011985 
2493.959088  	0.011795 
2495.887904  	0.011459 
2497.816720  	0.011678 
2499.745536  	0.011826 
2501.674352  	0.012114 
2503.603168  	0.012216 
2505.531984  	0.012088 
2507.460800  	0.012058 
2509.389616  	0.012289 
2511.318432  	0.012119 
2513.247248  	0.012159 
2515.176064  	0.012206 
2517.104880  	0.012401 
2519.033696  	0.012702 
2520.962512  	0.012697 
2522.891328  	0.012812 
2524.820144  	0.012895 
2526.748960  	0.012618 
2528.677776  	0.012674 
2530.606592  	0.012815 
2532.535408  	0.012748 
2534.464224  	0.012879 
2536.393040  	0.012937 
2538.321856  	0.012756 
2540.250672  	0.012734 
2542.179488  	0.012759 
2544.108304  	0.012935 
2546.037120  	0.013057 
2547.965936  	0.013268 
2549.894752  	0.013374 
2551.823568  	0.013414 
2553.752384  	0.013434 
2555.681200  	0.013502 
2557.610016  	0.013548 
2559.538832  	0.013613 
2561.467648  	0.013692 
2563.396464  	0.013854 
2565.325280  	0.014088 
2567.254096  	0.014000 
2569.182912  	0.013831 
2571.111728  	0.013753 
2573.040544  	0.013730 
2574.969360  	0.013732 
2576.898176  	0.013873 
2578.826992  	0.014168 
2580.755808  	0.014213 
2582.684624  	0.014142 
2584.613440  	0.014056 
2586.542256  	0.014214 
2588.471072  	0.014323 
2590.399888  	0.014390 
2592.328704  	0.014458 
2594.257520  	0.014642 
2596.186336  	0.014868 
2598.115152  	0.014873 
2600.043968  	0.014800 
2601.972784  	0.014831 
2603.901600  	0.014997 
2605.830416  	0.015174 
2607.759232  	0.014990 
2609.688048  	0.015100 
2611.616864  	0.015360 
2613.545680  	0.015536 
2615.474496  	0.015565 
2617.403312  	0.015579 
2619.332128  	0.015803 
2621.260944  	0.015910 
2623.189760  	0.015949 
2625.118576  	0.016108 
2627.047392  	0.016183 
2628.976208  	0.016424 
2630.905024  	0.016525 
2632.833840  	0.016672 
2634.762656  	0.016695 
2636.691472  	0.016632 
2638.620288  	0.016795 
2640.549104  	0.017022 
2642.477920  	0.017042 
2644.406736  	0.017098 
2646.335552  	0.017285 
2648.264368  	0.017435 
2650.193184  	0.017562 
2652.122000  	0.017732 
2654.050816  	0.017882 
2655.979632  	0.017829 
2657.908448  	0.017837 
2659.837264  	0.017967 
2661.766080  	0.017986 
2663.694896  	0.018072 
2665.623712  	0.018100 
2667.552528  	0.018044 
2669.481344  	0.018141 
2671.410160  	0.018417 
2673.338976  	0.018558 
2675.267792  	0.018670 
2677.196608  	0.018800 
2679.125424  	0.018903 
2681.054240  	0.018865 
2682.983056  	0.018925 
2684.911872  	0.019165 
2686.840688  	0.019261 
2688.769504  	0.019265 
2690.698320  	0.019256 
2692.627136  	0.019376 
2694.555952  	0.019513 
2696.484768  	0.019488 
2698.413584  	0.019546 
2700.342400  	0.019636 
2702.271216  	0.019789 
2704.200032  	0.019995 
2706.128848  	0.020164 
2708.057664  	0.020267 
2709.986480  	0.020230 
2711.915296  	0.020319 
2713.844112  	0.020467 
2715.772928  	0.020642 
2717.701744  	0.020809 
2719.630560  	0.020876 
2721.559376  	0.020845 
2723.488192  	0.020880 
2725.417008  	0.021120 
2727.345824  	0.021273 
2729.274640  	0.021225 
2731.203456  	0.021208 
2733.132272  	0.021389 
2735.061088  	0.021593 
2736.989904  	0.021725 
2738.918720  	0.021786 
2740.847536  	0.021695 
2742.776352  	0.021771 
2744.705168  	0.021988 
2746.633984  	0.021988 
2748.562800  	0.022064 
2750.491616  	0.022266 
2752.420432  	0.022242 
2754.349248  	0.022256 
2756.278064  	0.022390 
2758.206880  	0.022440 
2760.135696  	0.022629 
2762.064512  	0.022557 
2763.993328  	0.022543 
2765.922144  	0.022761 
2767.850960  	0.022892 
2769.779776  	0.022875 
2771.708592  	0.022885 
2773.637408  	0.022895 
2775.566224  	0.022958 
2777.495040  	0.023057 
2779.423856  	0.023212 
2781.352672  	0.023356 
2783.281488  	0.023400 
2785.210304  	0.023456 
2787.139120  	0.023581 
2789.067936  	0.023758 
2790.996752  	0.023805 
2792.925568  	0.023949 
2794.854384  	0.024042 
2796.783200  	0.024048 
2798.712016  	0.024014 
2800.640832  	0.024011 
2802.569648  	0.024184 
2804.498464  	0.024379 
2806.427280  	0.024499 
2808.356096  	0.024535 
2810.284912  	0.024688 
2812.213728  	0.024703 
2814.142544  	0.024705 
2816.071360  	0.024851 
2818.000176  	0.024842 
2819.928992  	0.024760 
2821.857808  	0.024836 
2823.786624  	0.024903 
2825.715440  	0.024910 
2827.644256  	0.024860 
2829.573072  	0.024876 
2831.501888  	0.024753 
2833.430704  	0.024641 
2835.359520  	0.024626 
2837.288336  	0.024555 
2839.217152  	0.024500 
2841.145968  	0.024486 
2843.074784  	0.024376 
2845.003600  	0.024310 
2846.932416  	0.024314 
2848.861232  	0.024257 
2850.790048  	0.024232 
2852.718864  	0.024183 
2854.647680  	0.024035 
2856.576496  	0.024058 
2858.505312  	0.024137 
2860.434128  	0.024170 
2862.362944  	0.024138 
2864.291760  	0.023969 
2866.220576  	0.023899 
2868.149392  	0.024083 
2870.078208  	0.024270 
2872.007024  	0.024479 
2873.935840  	0.024758 
2875.864656  	0.024997 
2877.793472  	0.025318 
2879.722288  	0.025647 
2881.651104  	0.025726 
2883.579920  	0.025737 
2885.508736  	0.025944 
2887.437552  	0.026126 
2889.366368  	0.026156 
2891.295184  	0.026257 
2893.224000  	0.026388 
2895.152816  	0.026572 
2897.081632  	0.026334 
2899.010448  	0.025971 
2900.939264  	0.025847 
2902.868080  	0.026153 
2904.796896  	0.026477 
2906.725712  	0.026689 
2908.654528  	0.026851 
2910.583344  	0.026977 
2912.512160  	0.027383 
2914.440976  	0.027966 
2916.369792  	0.028352 
2918.298608  	0.028510 
2920.227424  	0.028815 
2922.156240  	0.029525 
2924.085056  	0.030057 
2926.013872  	0.030601 
2927.942688  	0.031308 
2929.871504  	0.031938 
2931.800320  	0.032483 
2933.729136  	0.032907 
2935.657952  	0.033163 
2937.586768  	0.033510 
2939.515584  	0.033624 
2941.444400  	0.033743 
2943.373216  	0.033940 
2945.302032  	0.034073 
2947.230848  	0.034104 
2949.159664  	0.033908 
2951.088480  	0.033640 
2953.017296  	0.033631 
2954.946112  	0.033502 
2956.874928  	0.033202 
2958.803744  	0.032812 
2960.732560  	0.032616 
2962.661376  	0.032505 
2964.590192  	0.032128 
2966.519008  	0.031686 
2968.447824  	0.031401 
2970.376640  	0.031210 
2972.305456  	0.030813 
2974.234272  	0.030523 
2976.163088  	0.030534 
2978.091904  	0.030593 
2980.020720  	0.030510 
2981.949536  	0.030449 
2983.878352  	0.030188 
2985.807168  	0.029929 
2987.735984  	0.029917 
2989.664800  	0.029971 
2991.593616  	0.030476 
2993.522432  	0.030784 
2995.451248  	0.031077 
2997.380064  	0.031372 
2999.308880  	0.031630 
3001.237696  	0.031960 
3003.166512  	0.032292 
3005.095328  	0.032536 
3007.024144  	0.032985 
3008.952960  	0.033547 
3010.881776  	0.033835 
3012.810592  	0.034100 
3014.739408  	0.034512 
3016.668224  	0.034941 
3018.597040  	0.035160 
3020.525856  	0.035376 
3022.454672  	0.035720 
3024.383488  	0.036038 
3026.312304  	0.036288 
3028.241120  	0.036554 
3030.169936  	0.036762 
3032.098752  	0.037111 
3034.027568  	0.037164 
3035.956384  	0.037180 
3037.885200  	0.037562 
3039.814016  	0.037984 
3041.742832  	0.038255 
3043.671648  	0.038472 
3045.600464  	0.038730 
3047.529280  	0.038853 
3049.458096  	0.038956 
3051.386912  	0.039015 
3053.315728  	0.039180 
3055.244544  	0.039493 
3057.173360  	0.039930 
3059.102176  	0.040230 
3061.030992  	0.040363 
3062.959808  	0.040596 
3064.888624  	0.040929 
3066.817440  	0.041351 
3068.746256  	0.041507 
3070.675072  	0.041695 
3072.603888  	0.042088 
3074.532704  	0.042494 
3076.461520  	0.042760 
3078.390336  	0.042832 
3080.319152  	0.043187 
3082.247968  	0.043640 
3084.176784  	0.043920 
3086.105600  	0.044034 
3088.034416  	0.044219 
3089.963232  	0.044622 
3091.892048  	0.044979 
3093.820864  	0.045170 
3095.749680  	0.045378 
3097.678496  	0.045497 
3099.607312  	0.045699 
3101.536128  	0.045933 
3103.464944  	0.046249 
3105.393760  	0.046583 
3107.322576  	0.046909 
3109.251392  	0.047037 
3111.180208  	0.047150 
3113.109024  	0.047343 
3115.037840  	0.047483 
3116.966656  	0.047727 
3118.895472  	0.047904 
3120.824288  	0.047897 
3122.753104  	0.048135 
3124.681920  	0.048448 
3126.610736  	0.048572 
3128.539552  	0.048650 
3130.468368  	0.048699 
3132.397184  	0.048791 
3134.326000  	0.048961 
3136.254816  	0.049136 
3138.183632  	0.049315 
3140.112448  	0.049417 
3142.041264  	0.049505 
3143.970080  	0.049650 
3145.898896  	0.049777 
3147.827712  	0.049896 
3149.756528  	0.050079 
3151.685344  	0.050548 
3153.614160  	0.050871 
3155.542976  	0.050875 
3157.471792  	0.050994 
3159.400608  	0.051380 
3161.329424  	0.051684 
3163.258240  	0.051717 
3165.187056  	0.051876 
3167.115872  	0.052103 
3169.044688  	0.052205 
3170.973504  	0.052187 
3172.902320  	0.052324 
3174.831136  	0.052650 
3176.759952  	0.052808 
3178.688768  	0.052974 
3180.617584  	0.053000 
3182.546400  	0.052863 
3184.475216  	0.052977 
3186.404032  	0.053090 
3188.332848  	0.053167 
3190.261664  	0.053359 
3192.190480  	0.053616 
3194.119296  	0.053460 
3196.048112  	0.053195 
3197.976928  	0.053378 
3199.905744  	0.053465 
3201.834560  	0.053410 
3203.763376  	0.053450 
3205.692192  	0.053416 
3207.621008  	0.053332 
3209.549824  	0.053213 
3211.478640  	0.053177 
3213.407456  	0.053042 
3215.336272  	0.052989 
3217.265088  	0.052859 
3219.193904  	0.052675 
3221.122720  	0.052502 
3223.051536  	0.052387 
3224.980352  	0.052212 
3226.909168  	0.051934 
3228.837984  	0.051747 
3230.766800  	0.051734 
3232.695616  	0.051683 
3234.624432  	0.051657 
3236.553248  	0.051641 
3238.482064  	0.051578 
3240.410880  	0.051506 
3242.339696  	0.051334 
3244.268512  	0.051154 
3246.197328  	0.051150 
3248.126144  	0.051236 
3250.054960  	0.051282 
3251.983776  	0.051148 
3253.912592  	0.051129 
3255.841408  	0.051153 
3257.770224  	0.051157 
3259.699040  	0.051297 
3261.627856  	0.051345 
3263.556672  	0.051417 
3265.485488  	0.051454 
3267.414304  	0.051547 
3269.343120  	0.051600 
3271.271936  	0.051702 
3273.200752  	0.051929 
3275.129568  	0.052153 
3277.058384  	0.052257 
3278.987200  	0.052246 
3280.916016  	0.052250 
3282.844832  	0.052342 
3284.773648  	0.052401 
3286.702464  	0.052340 
3288.631280  	0.052389 
3290.560096  	0.052483 
3292.488912  	0.052709 
3294.417728  	0.052788 
3296.346544  	0.052849 
3298.275360  	0.052988 
3300.204176  	0.053265 
3302.132992  	0.053423 
3304.061808  	0.053520 
3305.990624  	0.053791 
3307.919440  	0.053795 
3309.848256  	0.053648 
3311.777072  	0.053641 
3313.705888  	0.053885 
3315.634704  	0.054188 
3317.563520  	0.054419 
3319.492336  	0.054600 
3321.421152  	0.054708 
3323.349968  	0.054838 
3325.278784  	0.055073 
3327.207600  	0.055090 
3329.136416  	0.054965 
3331.065232  	0.054723 
3332.994048  	0.054635 
3334.922864  	0.054675 
3336.851680  	0.054766 
3338.780496  	0.054706 
3340.709312  	0.054524 
3342.638128  	0.054517 
3344.566944  	0.054511 
3346.495760  	0.054282 
3348.424576  	0.054158 
3350.353392  	0.053986 
3352.282208  	0.053668 
3354.211024  	0.053546 
3356.139840  	0.053563 
3358.068656  	0.053378 
3359.997472  	0.053153 
3361.926288  	0.052952 
3363.855104  	0.052593 
3365.783920  	0.052427 
3367.712736  	0.052408 
3369.641552  	0.051983 
3371.570368  	0.051628 
3373.499184  	0.051361 
3375.428000  	0.051015 
3377.356816  	0.050858 
3379.285632  	0.050800 
3381.214448  	0.050704 
3383.143264  	0.050459 
3385.072080  	0.050225 
3387.000896  	0.049987 
3388.929712  	0.049750 
3390.858528  	0.049571 
3392.787344  	0.049261 
3394.716160  	0.048699 
3396.644976  	0.048433 
3398.573792  	0.048242 
3400.502608  	0.047804 
3402.431424  	0.047472 
3404.360240  	0.047237 
3406.289056  	0.046875 
3408.217872  	0.046663 
3410.146688  	0.046409 
3412.075504  	0.046254 
3414.004320  	0.046060 
3415.933136  	0.045823 
3417.861952  	0.045310 
3419.790768  	0.045013 
3421.719584  	0.044801 
3423.648400  	0.044429 
3425.577216  	0.044189 
3427.506032  	0.044025 
3429.434848  	0.043545 
3431.363664  	0.043302 
3433.292480  	0.043121 
3435.221296  	0.042958 
3437.150112  	0.042793 
3439.078928  	0.042525 
3441.007744  	0.042190 
3442.936560  	0.041889 
3444.865376  	0.041444 
3446.794192  	0.040899 
3448.723008  	0.040620 
3450.651824  	0.040298 
3452.580640  	0.039949 
3454.509456  	0.039554 
3456.438272  	0.039075 
3458.367088  	0.038786 
3460.295904  	0.038554 
3462.224720  	0.038245 
3464.153536  	0.037894 
3466.082352  	0.037662 
3468.011168  	0.037312 
3469.939984  	0.036804 
3471.868800  	0.036388 
3473.797616  	0.036062 
3475.726432  	0.035635 
3477.655248  	0.035145 
3479.584064  	0.034947 
3481.512880  	0.034650 
3483.441696  	0.034057 
3485.370512  	0.033481 
3487.299328  	0.033272 
3489.228144  	0.033013 
3491.156960  	0.032497 
3493.085776  	0.032181 
3495.014592  	0.031792 
3496.943408  	0.031466 
3498.872224  	0.031142 
3500.801040  	0.030817 
3502.729856  	0.030458 
3504.658672  	0.029977 
3506.587488  	0.029340 
3508.516304  	0.029099 
3510.445120  	0.029088 
3512.373936  	0.028848 
3514.302752  	0.028495 
3516.231568  	0.028150 
3518.160384  	0.027785 
3520.089200  	0.027468 
3522.018016  	0.027205 
3523.946832  	0.027110 
3525.875648  	0.026809 
3527.804464  	0.026429 
3529.733280  	0.026211 
3531.662096  	0.025966 
3533.590912  	0.025514 
3535.519728  	0.025215 
3537.448544  	0.025035 
3539.377360  	0.024694 
3541.306176  	0.024296 
3543.234992  	0.023834 
3545.163808  	0.023884 
3547.092624  	0.023669 
3549.021440  	0.022865 
3550.950256  	0.022435 
3552.879072  	0.022632 
3554.807888  	0.022437 
3556.736704  	0.021821 
3558.665520  	0.021611 
3560.594336  	0.021664 
3562.523152  	0.021094 
3564.451968  	0.020327 
3566.380784  	0.020363 
3568.309600  	0.020812 
3570.238416  	0.020328 
3572.167232  	0.019534 
3574.096048  	0.018963 
3576.024864  	0.018625 
3577.953680  	0.018213 
3579.882496  	0.017945 
3581.811312  	0.017780 
3583.740128  	0.017211 
3585.668944  	0.016518 
3587.597760  	0.016625 
3589.526576  	0.016651 
3591.455392  	0.015563 
3593.384208  	0.015200 
3595.313024  	0.015000 
3597.241840  	0.014379 
3599.170656  	0.013751 
3601.099472  	0.013672 
3603.028288  	0.013362 
3604.957104  	0.012734 
3606.885920  	0.011941 
3608.814736  	0.012138 
3610.743552  	0.011793 
3612.672368  	0.010936 
3614.601184  	0.010758 
3616.530000  	0.009770 
3618.458816  	0.009172 
3620.387632  	0.009745 
3622.316448  	0.009437 
3624.245264  	0.008715 
3626.174080  	0.007419 
3628.102896  	0.006234 
3630.031712  	0.007458 
3631.960528  	0.007357 
3633.889344  	0.006983 
3635.818160  	0.006518 
3637.746976  	0.006074 
3639.675792  	0.006052 
3641.604608  	0.005855 
3643.533424  	0.005161 
3645.462240  	0.003502 
3647.391056  	0.001781 
3649.319872  	0.001218 
3651.248688  	0.002995 
3653.177504  	0.003241 
3655.106320  	0.002155 
3657.035136  	0.002319 
3658.963952  	0.002445 
3660.892768  	0.002002 
3662.821584  	0.001614 
3664.750400  	0.001301 
3666.679216  	0.000292 
3668.608032  	-0.001185 
3670.536848  	-0.000847 
3672.465664  	-0.000741 
3674.394480  	-0.002413 
3676.323296  	-0.001305 
3678.252112  	-0.000107 
3680.180928  	0.000346 
3682.109744  	0.000342 
3684.038560  	0.000015 
3685.967376  	-0.001304 
3687.896192  	-0.002746 
3689.825008  	-0.002369 
3691.753824  	-0.001001 
3693.682640  	-0.000145 
3695.611456  	-0.000156 
3697.540272  	-0.000069 
3699.469088  	-0.000516 
3701.397904  	-0.000460 
3703.326720  	0.000047 
3705.255536  	0.000033 
3707.184352  	-0.000644 
3709.113168  	-0.001730 
3711.041984  	-0.001755 
3712.970800  	-0.000207 
3714.899616  	0.000482 
3716.828432  	0.000225 
3718.757248  	-0.000349 
3720.686064  	-0.000840 
3722.614880  	-0.000406 
3724.543696  	0.000107 
3726.472512  	0.000405 
3728.401328  	0.000069 
3730.330144  	-0.001545 
3732.258960  	-0.002576 
3734.187776  	-0.001985 
3736.116592  	-0.000346 
3738.045408  	-0.000391 
3739.974224  	-0.000842 
3741.903040  	-0.001650 
3743.831856  	-0.001797 
3745.760672  	-0.000197 
3747.689488  	-0.001887 
3749.618304  	-0.003475 
3751.547120  	-0.002543 
3753.475936  	-0.000081 
3755.404752  	-0.000082 
3757.333568  	-0.000675 
3759.262384  	-0.000517 
3761.191200  	0.000511 
3763.120016  	0.000350 
3765.048832  	-0.000063 
3766.977648  	-0.000119 
3768.906464  	-0.000532 
3770.835280  	0.000321 
3772.764096  	0.001067 
3774.692912  	0.000906 
3776.621728  	0.000020 
3778.550544  	-0.000610 
3780.479360  	0.000184 
3782.408176  	0.000421 
3784.336992  	0.000225 
3786.265808  	0.000473 
3788.194624  	0.000758 
3790.123440  	0.000707 
3792.052256  	0.000461 
3793.981072  	-0.000105 
3795.909888  	-0.000567 
3797.838704  	-0.000529 
3799.767520  	-0.001758 
3801.696336  	-0.001543 
3803.625152  	-0.000471 
3805.553968  	-0.001216 
3807.482784  	-0.000507 
3809.411600  	0.000453 
3811.340416  	0.000448 
3813.269232  	-0.000400 
3815.198048  	-0.001445 
3817.126864  	-0.000867 
3819.055680  	-0.001680 
3820.984496  	-0.001682 
3822.913312  	0.000158 
3824.842128  	-0.000161 
3826.770944  	-0.000250 
3828.699760  	-0.000038 
3830.628576  	-0.000582 
3832.557392  	-0.000687 
3834.486208  	-0.001276 
3836.415024  	-0.002135 
3838.343840  	-0.001793 
3840.272656  	-0.001033 
3842.201472  	-0.000753 
3844.130288  	-0.000407 
3846.059104  	0.000091 
3847.987920  	-0.000282 
3849.916736  	-0.001432 
3851.845552  	-0.003445 
3853.774368  	-0.002269 
3855.703184  	-0.000194 
3857.632000  	-0.000088 
3859.560816  	-0.000288 
3861.489632  	-0.000630 
3863.418448  	-0.000779 
3865.347264  	-0.000171 
3867.276080  	-0.000599 
3869.204896  	-0.001081 
3871.133712  	0.000270 
3873.062528  	-0.000131 
3874.991344  	0.000441 
3876.920160  	0.000292 
3878.848976  	-0.000466 
3880.777792  	0.000216 
3882.706608  	0.000557 
3884.635424  	0.000048 
3886.564240  	0.000754 
3888.493056  	0.000229 
3890.421872  	-0.000266 
3892.350688  	0.000469 
3894.279504  	0.000748 
3896.208320  	0.000401 
3898.137136  	0.000040 
3900.065952  	-0.000043 
3901.994768  	-0.000054 
3903.923584  	0.000523 
3905.852400  	0.001202 
3907.781216  	0.001097 
3909.710032  	0.000856 
3911.638848  	0.000812 
3913.567664  	0.000694 
3915.496480  	0.000601 
3917.425296  	0.001124 
3919.354112  	0.001119 
3921.282928  	0.000965 
3923.211744  	0.000686 
3925.140560  	0.001004 
3927.069376  	0.000908 
3928.998192  	0.000475 
3930.927008  	0.000883 
3932.855824  	0.001483 
3934.784640  	0.001288 
3936.713456  	0.001187 
3938.642272  	0.001145 
3940.571088  	0.000792 
3942.499904  	0.001039 
3944.428720  	0.001352 
3946.357536  	0.001099 
3948.286352  	0.001163 
3950.215168  	0.000998 
3952.143984  	0.000817 
3954.072800  	0.000822 
3956.001616  	0.000725 
3957.930432  	0.000917 
3959.859248  	0.001077 
3961.788064  	0.001059 
3963.716880  	0.001018 
3965.645696  	0.000957 
3967.574512  	0.001135 
3969.503328  	0.001200 
3971.432144  	0.001012 
3973.360960  	0.000894 
3975.289776  	0.001109 
3977.218592  	0.001380 
3979.147408  	0.001353 
3981.076224  	0.000982 
3983.005040  	0.000846 
3984.933856  	0.000994 
3986.862672  	0.001115 
3988.791488  	0.000972 
3990.720304  	0.000942 
3992.649120  	0.001062 
3994.577936  	0.001052 
3996.506752  	0.001119 
3998.435568  	0.001251 
4000.364384  	0.001289 