##TITLE=No Description
##DATA TYPE=INFRARED SPECTRUM
##XUNITS=1/CM
##YUNITS=Abs
399.264912  	0.601741 
401.193728  	0.587203 
403.122544  	0.593786 
405.051360  	0.577817 
406.980176  	0.566724 
408.908992  	0.565849 
410.837808  	0.576698 
412.766624  	0.571223 
414.695440  	0.567287 
416.624256  	0.557958 
418.553072  	0.555942 
420.481888  	0.553644 
422.410704  	0.560995 
424.339520  	0.554482 
426.268336  	0.556579 
428.197152  	0.545220 
430.125968  	0.539006 
432.054784  	0.535430 
433.983600  	0.529900 
435.912416  	0.522966 
437.841232  	0.526051 
439.770048  	0.528479 
441.698864  	0.528186 
443.627680  	0.520801 
445.556496  	0.519968 
447.485312  	0.517886 
449.414128  	0.517263 
451.342944  	0.509510 
453.271760  	0.511911 
455.200576  	0.508236 
457.129392  	0.505665 
459.058208  	0.502721 
460.987024  	0.508912 
462.915840  	0.507635 
464.844656  	0.505298 
466.773472  	0.502355 
468.702288  	0.504230 
470.631104  	0.502888 
472.559920  	0.502687 
474.488736  	0.498079 
476.417552  	0.498341 
478.346368  	0.496455 
480.275184  	0.498681 
482.204000  	0.496262 
484.132816  	0.497062 
486.061632  	0.495173 
487.990448  	0.497971 
489.919264  	0.496136 
491.848080  	0.496493 
493.776896  	0.493230 
495.705712  	0.491407 
497.634528  	0.487495 
499.563344  	0.486309 
501.492160  	0.483517 
503.420976  	0.485567 
505.349792  	0.487247 
507.278608  	0.485620 
509.207424  	0.481583 
511.136240  	0.481093 
513.065056  	0.481139 
514.993872  	0.485099 
516.922688  	0.484876 
518.851504  	0.484140 
520.780320  	0.484132 
522.709136  	0.484866 
524.637952  	0.481491 
526.566768  	0.480059 
528.495584  	0.477924 
530.424400  	0.477904 
532.353216  	0.474536 
534.282032  	0.471092 
536.210848  	0.468469 
538.139664  	0.465623 
540.068480  	0.460506 
541.997296  	0.456275 
543.926112  	0.452102 
545.854928  	0.450356 
547.783744  	0.446287 
549.712560  	0.443035 
551.641376  	0.439227 
553.570192  	0.437088 
555.499008  	0.433984 
557.427824  	0.431195 
559.356640  	0.427203 
561.285456  	0.424565 
563.214272  	0.421373 
565.143088  	0.418214 
567.071904  	0.414474 
569.000720  	0.411338 
570.929536  	0.407348 
572.858352  	0.404326 
574.787168  	0.401725 
576.715984  	0.399471 
578.644800  	0.396147 
580.573616  	0.393778 
582.502432  	0.389265 
584.431248  	0.386443 
586.360064  	0.384186 
588.288880  	0.382689 
590.217696  	0.380448 
592.146512  	0.378614 
594.075328  	0.376590 
596.004144  	0.374413 
597.932960  	0.372998 
599.861776  	0.372569 
601.790592  	0.370728 
603.719408  	0.368963 
605.648224  	0.367321 
607.577040  	0.366927 
609.505856  	0.366146 
611.434672  	0.364659 
613.363488  	0.362102 
615.292304  	0.360627 
617.221120  	0.359146 
619.149936  	0.357554 
621.078752  	0.354718 
623.007568  	0.352238 
624.936384  	0.349948 
626.865200  	0.349208 
628.794016  	0.347705 
630.722832  	0.345948 
632.651648  	0.343988 
634.580464  	0.343336 
636.509280  	0.343749 
638.438096  	0.343696 
640.366912  	0.342297 
642.295728  	0.340120 
644.224544  	0.337395 
646.153360  	0.334969 
648.082176  	0.331018 
650.010992  	0.327537 
651.939808  	0.324401 
653.868624  	0.321414 
655.797440  	0.317884 
657.726256  	0.314784 
659.655072  	0.311195 
661.583888  	0.308097 
663.512704  	0.305153 
665.441520  	0.302261 
667.370336  	0.296997 
669.299152  	0.293343 
671.227968  	0.293116 
673.156784  	0.290748 
675.085600  	0.287959 
677.014416  	0.286005 
678.943232  	0.284386 
680.872048  	0.283019 
682.800864  	0.281295 
684.729680  	0.279723 
686.658496  	0.277492 
688.587312  	0.275507 
690.516128  	0.274195 
692.444944  	0.273495 
694.373760  	0.271856 
696.302576  	0.270002 
698.231392  	0.267939 
700.160208  	0.265381 
702.089024  	0.262465 
704.017840  	0.260922 
705.946656  	0.258564 
707.875472  	0.255963 
709.804288  	0.254165 
711.733104  	0.252627 
713.661920  	0.250874 
715.590736  	0.249818 
717.519552  	0.248914 
719.448368  	0.248585 
721.377184  	0.248793 
723.306000  	0.249198 
725.234816  	0.248478 
727.163632  	0.246686 
729.092448  	0.244231 
731.021264  	0.241968 
732.950080  	0.239479 
734.878896  	0.236856 
736.807712  	0.234664 
738.736528  	0.232912 
740.665344  	0.231071 
742.594160  	0.229411 
744.522976  	0.227986 
746.451792  	0.226805 
748.380608  	0.225641 
750.309424  	0.224688 
752.238240  	0.223906 
754.167056  	0.223352 
756.095872  	0.222267 
758.024688  	0.220796 
759.953504  	0.219704 
761.882320  	0.219235 
763.811136  	0.218677 
765.739952  	0.217723 
767.668768  	0.216584 
769.597584  	0.215470 
771.526400  	0.215101 
773.455216  	0.216042 
775.384032  	0.217554 
777.312848  	0.219713 
779.241664  	0.221851 
781.170480  	0.222254 
783.099296  	0.219807 
785.028112  	0.215287 
786.956928  	0.209878 
788.885744  	0.205719 
790.814560  	0.202579 
792.743376  	0.200172 
794.672192  	0.198184 
796.601008  	0.196768 
798.529824  	0.194935 
800.458640  	0.192093 
802.387456  	0.189432 
804.316272  	0.188046 
806.245088  	0.186916 
808.173904  	0.186154 
810.102720  	0.185525 
812.031536  	0.184893 
813.960352  	0.184320 
815.889168  	0.183756 
817.817984  	0.183291 
819.746800  	0.182982 
821.675616  	0.182123 
823.604432  	0.181131 
825.533248  	0.180119 
827.462064  	0.178926 
829.390880  	0.177645 
831.319696  	0.176508 
833.248512  	0.175135 
835.177328  	0.173537 
837.106144  	0.171319 
839.034960  	0.168461 
840.963776  	0.165859 
842.892592  	0.163577 
844.821408  	0.161109 
846.750224  	0.158725 
848.679040  	0.156735 
850.607856  	0.154742 
852.536672  	0.152983 
854.465488  	0.151077 
856.394304  	0.149426 
858.323120  	0.147857 
860.251936  	0.146074 
862.180752  	0.144183 
864.109568  	0.142531 
866.038384  	0.141142 
867.967200  	0.139462 
869.896016  	0.137737 
871.824832  	0.136469 
873.753648  	0.135796 
875.682464  	0.135479 
877.611280  	0.135335 
879.540096  	0.135443 
881.468912  	0.135908 
883.397728  	0.136089 
885.326544  	0.135951 
887.255360  	0.135592 
889.184176  	0.134977 
891.112992  	0.133849 
893.041808  	0.132338 
894.970624  	0.130658 
896.899440  	0.128555 
898.828256  	0.125721 
900.757072  	0.122807 
902.685888  	0.120392 
904.614704  	0.118756 
906.543520  	0.118028 
908.472336  	0.118386 
910.401152  	0.119711 
912.329968  	0.121620 
914.258784  	0.123667 
916.187600  	0.125542 
918.116416  	0.126893 
920.045232  	0.127533 
921.974048  	0.127317 
923.902864  	0.126547 
925.831680  	0.125486 
927.760496  	0.124445 
929.689312  	0.123535 
931.618128  	0.123290 
933.546944  	0.123452 
935.475760  	0.123574 
937.404576  	0.123792 
939.333392  	0.124294 
941.262208  	0.125002 
943.191024  	0.126532 
945.119840  	0.129117 
947.048656  	0.132189 
948.977472  	0.136181 
950.906288  	0.140982 
952.835104  	0.146174 
954.763920  	0.151256 
956.692736  	0.156156 
958.621552  	0.160483 
960.550368  	0.163398 
962.479184  	0.164660 
964.408000  	0.163943 
966.336816  	0.161301 
968.265632  	0.156400 
970.194448  	0.150441 
972.123264  	0.143572 
974.052080  	0.135914 
975.980896  	0.128227 
977.909712  	0.121150 
979.838528  	0.115258 
981.767344  	0.110280 
983.696160  	0.106629 
985.624976  	0.104619 
987.553792  	0.104519 
989.482608  	0.105981 
991.411424  	0.108872 
993.340240  	0.113232 
995.269056  	0.118537 
997.197872  	0.123947 
999.126688  	0.129353 
1001.055504  	0.134996 
1002.984320  	0.140344 
1004.913136  	0.145128 
1006.841952  	0.149234 
1008.770768  	0.153111 
1010.699584  	0.156201 
1012.628400  	0.158114 
1014.557216  	0.159182 
1016.486032  	0.159898 
1018.414848  	0.160307 
1020.343664  	0.160772 
1022.272480  	0.161069 
1024.201296  	0.160947 
1026.130112  	0.160048 
1028.058928  	0.160048 
1029.987744  	0.161442 
1031.916560  	0.162821 
1033.845376  	0.164329 
1035.774192  	0.166230 
1037.703008  	0.168547 
1039.631824  	0.172451 
1041.560640  	0.177573 
1043.489456  	0.184369 
1045.418272  	0.192940 
1047.347088  	0.203555 
1049.275904  	0.214588 
1051.204720  	0.225708 
1053.133536  	0.235909 
1055.062352  	0.244092 
1056.991168  	0.249083 
1058.919984  	0.252994 
1060.848800  	0.254834 
1062.777616  	0.254607 
1064.706432  	0.251616 
1066.635248  	0.247887 
1068.564064  	0.244478 
1070.492880  	0.240456 
1072.421696  	0.235171 
1074.350512  	0.230265 
1076.279328  	0.226145 
1078.208144  	0.222844 
1080.136960  	0.220325 
1082.065776  	0.217960 
1083.994592  	0.215492 
1085.923408  	0.213333 
1087.852224  	0.210536 
1089.781040  	0.207342 
1091.709856  	0.202980 
1093.638672  	0.197203 
1095.567488  	0.190298 
1097.496304  	0.182709 
1099.425120  	0.174770 
1101.353936  	0.166660 
1103.282752  	0.158333 
1105.211568  	0.150387 
1107.140384  	0.142437 
1109.069200  	0.134590 
1110.998016  	0.127491 
1112.926832  	0.120835 
1114.855648  	0.114330 
1116.784464  	0.108028 
1118.713280  	0.102518 
1120.642096  	0.097486 
1122.570912  	0.092539 
1124.499728  	0.087820 
1126.428544  	0.083192 
1128.357360  	0.078676 
1130.286176  	0.074577 
1132.214992  	0.071186 
1134.143808  	0.068330 
1136.072624  	0.065566 
1138.001440  	0.062957 
1139.930256  	0.060605 
1141.859072  	0.058583 
1143.787888  	0.056406 
1145.716704  	0.054738 
1147.645520  	0.053602 
1149.574336  	0.052682 
1151.503152  	0.051971 
1153.431968  	0.051772 
1155.360784  	0.051777 
1157.289600  	0.052084 
1159.218416  	0.052486 
1161.147232  	0.053200 
1163.076048  	0.054049 
1165.004864  	0.055095 
1166.933680  	0.056137 
1168.862496  	0.057565 
1170.791312  	0.059375 
1172.720128  	0.061163 
1174.648944  	0.062675 
1176.577760  	0.064562 
1178.506576  	0.066685 
1180.435392  	0.068678 
1182.364208  	0.070562 
1184.293024  	0.072672 
1186.221840  	0.074919 
1188.150656  	0.077465 
1190.079472  	0.080499 
1192.008288  	0.083983 
1193.937104  	0.087801 
1195.865920  	0.092275 
1197.794736  	0.096941 
1199.723552  	0.101823 
1201.652368  	0.107081 
1203.581184  	0.112555 
1205.510000  	0.117681 
1207.438816  	0.122782 
1209.367632  	0.127831 
1211.296448  	0.132742 
1213.225264  	0.136907 
1215.154080  	0.140225 
1217.082896  	0.143219 
1219.011712  	0.145573 
1220.940528  	0.147640 
1222.869344  	0.149150 
1224.798160  	0.149902 
1226.726976  	0.150160 
1228.655792  	0.150245 
1230.584608  	0.149904 
1232.513424  	0.148996 
1234.442240  	0.147131 
1236.371056  	0.144709 
1238.299872  	0.141696 
1240.228688  	0.137660 
1242.157504  	0.133188 
1244.086320  	0.128663 
1246.015136  	0.123258 
1247.943952  	0.117681 
1249.872768  	0.112160 
1251.801584  	0.106973 
1253.730400  	0.101775 
1255.659216  	0.096890 
1257.588032  	0.092280 
1259.516848  	0.087810 
1261.445664  	0.083657 
1263.374480  	0.079914 
1265.303296  	0.076687 
1267.232112  	0.074093 
1269.160928  	0.072234 
1271.089744  	0.071103 
1273.018560  	0.070670 
1274.947376  	0.070657 
1276.876192  	0.070755 
1278.805008  	0.070408 
1280.733824  	0.069150 
1282.662640  	0.066716 
1284.591456  	0.063603 
1286.520272  	0.060446 
1288.449088  	0.057949 
1290.377904  	0.055998 
1292.306720  	0.054347 
1294.235536  	0.052356 
1296.164352  	0.049800 
1298.093168  	0.046927 
1300.021984  	0.044075 
1301.950800  	0.041393 
1303.879616  	0.039291 
1305.808432  	0.037663 
1307.737248  	0.036540 
1309.666064  	0.035527 
1311.594880  	0.035127 
1313.523696  	0.035032 
1315.452512  	0.035061 
1317.381328  	0.035378 
1319.310144  	0.035874 
1321.238960  	0.036413 
1323.167776  	0.037098 
1325.096592  	0.037511 
1327.025408  	0.037535 
1328.954224  	0.037051 
1330.883040  	0.036357 
1332.811856  	0.035497 
1334.740672  	0.034887 
1336.669488  	0.034433 
1338.598304  	0.034249 
1340.527120  	0.033559 
1342.455936  	0.032619 
1344.384752  	0.032472 
1346.313568  	0.033052 
1348.242384  	0.033982 
1350.171200  	0.035314 
1352.100016  	0.036858 
1354.028832  	0.038528 
1355.957648  	0.040219 
1357.886464  	0.041853 
1359.815280  	0.043215 
1361.744096  	0.044747 
1363.672912  	0.045945 
1365.601728  	0.046315 
1367.530544  	0.046614 
1369.459360  	0.046755 
1371.388176  	0.046254 
1373.316992  	0.045450 
1375.245808  	0.044091 
1377.174624  	0.042638 
1379.103440  	0.041096 
1381.032256  	0.039560 
1382.961072  	0.038308 
1384.889888  	0.037677 
1386.818704  	0.037194 
1388.747520  	0.036212 
1390.676336  	0.035017 
1392.605152  	0.033731 
1394.533968  	0.032974 
1396.462784  	0.033916 
1398.391600  	0.034386 
1400.320416  	0.034601 
1402.249232  	0.034900 
1404.178048  	0.035834 
1406.106864  	0.036837 
1408.035680  	0.038095 
1409.964496  	0.039751 
1411.893312  	0.041510 
1413.822128  	0.043069 
1415.750944  	0.044883 
1417.679760  	0.045734 
1419.608576  	0.045317 
1421.537392  	0.045075 
1423.466208  	0.044731 
1425.395024  	0.043622 
1427.323840  	0.042264 
1429.252656  	0.040623 
1431.181472  	0.039675 
1433.110288  	0.039495 
1435.039104  	0.039452 
1436.967920  	0.039315 
1438.896736  	0.039634 
1440.825552  	0.039981 
1442.754368  	0.040375 
1444.683184  	0.040366 
1446.612000  	0.040281 
1448.540816  	0.040233 
1450.469632  	0.040467 
1452.398448  	0.040696 
1454.327264  	0.040877 
1456.256080  	0.040364 
1458.184896  	0.040267 
1460.113712  	0.041154 
1462.042528  	0.041746 
1463.971344  	0.041746 
1465.900160  	0.043152 
1467.828976  	0.045227 
1469.757792  	0.047123 
1471.686608  	0.049061 
1473.615424  	0.052786 
1475.544240  	0.055581 
1477.473056  	0.057312 
1479.401872  	0.057989 
1481.330688  	0.058223 
1483.259504  	0.057960 
1485.188320  	0.057204 
1487.117136  	0.055492 
1489.045952  	0.053692 
1490.974768  	0.051074 
1492.903584  	0.048702 
1494.832400  	0.046105 
1496.761216  	0.043103 
1498.690032  	0.040844 
1500.618848  	0.039693 
1502.547664  	0.038376 
1504.476480  	0.036177 
1506.405296  	0.034052 
1508.334112  	0.035350 
1510.262928  	0.035383 
1512.191744  	0.034424 
1514.120560  	0.033628 
1516.049376  	0.033387 
1517.978192  	0.033348 
1519.907008  	0.033638 
1521.835824  	0.034524 
1523.764640  	0.037225 
1525.693456  	0.039819 
1527.622272  	0.041889 
1529.551088  	0.043140 
1531.479904  	0.043746 
1533.408720  	0.043154 
1535.337536  	0.042951 
1537.266352  	0.041500 
1539.195168  	0.037295 
1541.123984  	0.035217 
1543.052800  	0.036708 
1544.981616  	0.036852 
1546.910432  	0.036050 
1548.839248  	0.035515 
1550.768064  	0.035531 
1552.696880  	0.035104 
1554.625696  	0.035014 
1556.554512  	0.034225 
1558.483328  	0.032742 
1560.412144  	0.036543 
1562.340960  	0.039896 
1564.269776  	0.041508 
1566.198592  	0.044090 
1568.127408  	0.045941 
1570.056224  	0.049057 
1571.985040  	0.052727 
1573.913856  	0.054344 
1575.842672  	0.054510 
1577.771488  	0.056503 
1579.700304  	0.057346 
1581.629120  	0.057425 
1583.557936  	0.057623 
1585.486752  	0.058855 
1587.415568  	0.060926 
1589.344384  	0.064009 
1591.273200  	0.067534 
1593.202016  	0.071578 
1595.130832  	0.075436 
1597.059648  	0.079330 
1598.988464  	0.082328 
1600.917280  	0.084691 
1602.846096  	0.085892 
1604.774912  	0.086624 
1606.703728  	0.086367 
1608.632544  	0.086125 
1610.561360  	0.085690 
1612.490176  	0.085646 
1614.418992  	0.085240 
1616.347808  	0.085450 
1618.276624  	0.088502 
1620.205440  	0.092340 
1622.134256  	0.095272 
1624.063072  	0.100608 
1625.991888  	0.105933 
1627.920704  	0.111479 
1629.849520  	0.117836 
1631.778336  	0.123430 
1633.707152  	0.126985 
1635.635968  	0.131457 
1637.564784  	0.138018 
1639.493600  	0.142646 
1641.422416  	0.145778 
1643.351232  	0.147908 
1645.280048  	0.148184 
1647.208864  	0.149063 
1649.137680  	0.150311 
1651.066496  	0.149443 
1652.995312  	0.145958 
1654.924128  	0.148140 
1656.852944  	0.148607 
1658.781760  	0.148052 
1660.710576  	0.146867 
1662.639392  	0.145534 
1664.568208  	0.145161 
1666.497024  	0.144679 
1668.425840  	0.142801 
1670.354656  	0.141864 
1672.283472  	0.142182 
1674.212288  	0.142005 
1676.141104  	0.142454 
1678.069920  	0.143886 
1679.998736  	0.144767 
1681.927552  	0.144640 
1683.856368  	0.143070 
1685.785184  	0.144964 
1687.714000  	0.145659 
1689.642816  	0.144747 
1691.571632  	0.143232 
1693.500448  	0.141254 
1695.429264  	0.137048 
1697.358080  	0.133912 
1699.286896  	0.130468 
1701.215712  	0.126002 
1703.144528  	0.123724 
1705.073344  	0.119261 
1707.002160  	0.114472 
1708.930976  	0.110576 
1710.859792  	0.106073 
1712.788608  	0.101198 
1714.717424  	0.095730 
1716.646240  	0.089199 
1718.575056  	0.082736 
1720.503872  	0.078302 
1722.432688  	0.074072 
1724.361504  	0.068711 
1726.290320  	0.063802 
1728.219136  	0.058946 
1730.147952  	0.054285 
1732.076768  	0.049620 
1734.005584  	0.043859 
1735.934400  	0.039123 
1737.863216  	0.036339 
1739.792032  	0.031663 
1741.720848  	0.028694 
1743.649664  	0.026217 
1745.578480  	0.023600 
1747.507296  	0.020838 
1749.436112  	0.019171 
1751.364928  	0.017809 
1753.293744  	0.016676 
1755.222560  	0.015298 
1757.151376  	0.014500 
1759.080192  	0.013600 
1761.009008  	0.012871 
1762.937824  	0.012257 
1764.866640  	0.012154 
1766.795456  	0.011657 
1768.724272  	0.011343 
1770.653088  	0.009713 
1772.581904  	0.008843 
1774.510720  	0.009646 
1776.439536  	0.010190 
1778.368352  	0.010033 
1780.297168  	0.009933 
1782.225984  	0.009485 
1784.154800  	0.009496 
1786.083616  	0.009348 
1788.012432  	0.009169 
1789.941248  	0.008705 
1791.870064  	0.008370 
1793.798880  	0.008221 
1795.727696  	0.008653 
1797.656512  	0.008352 
1799.585328  	0.008101 
1801.514144  	0.008153 
1803.442960  	0.008081 
1805.371776  	0.007715 
1807.300592  	0.007618 
1809.229408  	0.007186 
1811.158224  	0.007277 
1813.087040  	0.007154 
1815.015856  	0.007011 
1816.944672  	0.006847 
1818.873488  	0.007123 
1820.802304  	0.007198 
1822.731120  	0.007380 
1824.659936  	0.007105 
1826.588752  	0.007039 
1828.517568  	0.006531 
1830.446384  	0.006739 
1832.375200  	0.007089 
1834.304016  	0.007038 
1836.232832  	0.006802 
1838.161648  	0.007233 
1840.090464  	0.007080 
1842.019280  	0.006853 
1843.948096  	0.006215 
1845.876912  	0.006614 
1847.805728  	0.006869 
1849.734544  	0.006936 
1851.663360  	0.006689 
1853.592176  	0.006741 
1855.520992  	0.006645 
1857.449808  	0.007061 
1859.378624  	0.007071 
1861.307440  	0.007063 
1863.236256  	0.006719 
1865.165072  	0.006715 
1867.093888  	0.006478 
1869.022704  	0.006747 
1870.951520  	0.006785 
1872.880336  	0.006923 
1874.809152  	0.006537 
1876.737968  	0.006506 
1878.666784  	0.006228 
1880.595600  	0.006188 
1882.524416  	0.006191 
1884.453232  	0.006369 
1886.382048  	0.006265 
1888.310864  	0.006458 
1890.239680  	0.006618 
1892.168496  	0.006770 
1894.097312  	0.006217 
1896.026128  	0.006507 
1897.954944  	0.006424 
1899.883760  	0.006302 
1901.812576  	0.006161 
1903.741392  	0.006611 
1905.670208  	0.006386 
1907.599024  	0.006381 
1909.527840  	0.006206 
1911.456656  	0.006334 
1913.385472  	0.006390 
1915.314288  	0.006850 
1917.243104  	0.006537 
1919.171920  	0.006480 
1921.100736  	0.006495 
1923.029552  	0.006930 
1924.958368  	0.006398 
1926.887184  	0.006608 
1928.816000  	0.006153 
1930.744816  	0.005856 
1932.673632  	0.005603 
1934.602448  	0.006232 
1936.531264  	0.006426 
1938.460080  	0.006453 
1940.388896  	0.006230 
1942.317712  	0.006433 
1944.246528  	0.006193 
1946.175344  	0.006850 
1948.104160  	0.006374 
1950.032976  	0.006167 
1951.961792  	0.006443 
1953.890608  	0.006864 
1955.819424  	0.006000 
1957.748240  	0.006169 
1959.677056  	0.006815 
1961.605872  	0.007169 
1963.534688  	0.005901 
1965.463504  	0.006751 
1967.392320  	0.006001 
1969.321136  	0.005242 
1971.249952  	0.005966 
1973.178768  	0.007379 
1975.107584  	0.006304 
1977.036400  	0.005798 
1978.965216  	0.007737 
1980.894032  	0.009105 
1982.822848  	0.007000 
1984.751664  	0.007056 
1986.680480  	0.007344 
1988.609296  	0.007331 
1990.538112  	0.007368 
1992.466928  	0.008365 
1994.395744  	0.007873 
1996.324560  	0.007615 
1998.253376  	0.006924 
2000.182192  	0.006627 
2002.111008  	0.006889 
2004.039824  	0.006957 
2005.968640  	0.005449 
2007.897456  	0.006564 
2009.826272  	0.006846 
2011.755088  	0.005989 
2013.683904  	0.006232 
2015.612720  	0.007388 
2017.541536  	0.007128 
2019.470352  	0.007355 
2021.399168  	0.007075 
2023.327984  	0.007926 
2025.256800  	0.007332 
2027.185616  	0.006231 
2029.114432  	0.005191 
2031.043248  	0.006437 
2032.972064  	0.006397 
2034.900880  	0.006935 
2036.829696  	0.006615 
2038.758512  	0.005975 
2040.687328  	0.006029 
2042.616144  	0.006801 
2044.544960  	0.006958 
2046.473776  	0.007698 
2048.402592  	0.007348 
2050.331408  	0.007865 
2052.260224  	0.007039 
2054.189040  	0.006641 
2056.117856  	0.006178 
2058.046672  	0.006636 
2059.975488  	0.006552 
2061.904304  	0.006627 
2063.833120  	0.007601 
2065.761936  	0.008030 
2067.690752  	0.006994 
2069.619568  	0.006277 
2071.548384  	0.005154 
2073.477200  	0.005689 
2075.406016  	0.006678 
2077.334832  	0.007101 
2079.263648  	0.006455 
2081.192464  	0.006888 
2083.121280  	0.007673 
2085.050096  	0.007470 
2086.978912  	0.006956 
2088.907728  	0.006834 
2090.836544  	0.006252 
2092.765360  	0.006268 
2094.694176  	0.006414 
2096.622992  	0.006179 
2098.551808  	0.005939 
2100.480624  	0.006367 
2102.409440  	0.006256 
2104.338256  	0.006614 
2106.267072  	0.006963 
2108.195888  	0.006967 
2110.124704  	0.006962 
2112.053520  	0.007311 
2113.982336  	0.007059 
2115.911152  	0.006976 
2117.839968  	0.006726 
2119.768784  	0.006367 
2121.697600  	0.005864 
2123.626416  	0.005776 
2125.555232  	0.006146 
2127.484048  	0.006420 
2129.412864  	0.005540 
2131.341680  	0.004744 
2133.270496  	0.004922 
2135.199312  	0.005484 
2137.128128  	0.006209 
2139.056944  	0.006835 
2140.985760  	0.006177 
2142.914576  	0.006560 
2144.843392  	0.005967 
2146.772208  	0.005969 
2148.701024  	0.006690 
2150.629840  	0.007298 
2152.558656  	0.005961 
2154.487472  	0.004390 
2156.416288  	0.003750 
2158.345104  	0.005439 
2160.273920  	0.007390 
2162.202736  	0.008005 
2164.131552  	0.007722 
2166.060368  	0.009019 
2167.989184  	0.007709 
2169.918000  	0.005863 
2171.846816  	0.005361 
2173.775632  	0.006090 
2175.704448  	0.006404 
2177.633264  	0.006741 
2179.562080  	0.006607 
2181.490896  	0.006215 
2183.419712  	0.006240 
2185.348528  	0.007210 
2187.277344  	0.007168 
2189.206160  	0.007277 
2191.134976  	0.007768 
2193.063792  	0.008560 
2194.992608  	0.007960 
2196.921424  	0.007338 
2198.850240  	0.007734 
2200.779056  	0.007609 
2202.707872  	0.006679 
2204.636688  	0.006121 
2206.565504  	0.006988 
2208.494320  	0.007883 
2210.423136  	0.006891 
2212.351952  	0.006696 
2214.280768  	0.007246 
2216.209584  	0.007208 
2218.138400  	0.006718 
2220.067216  	0.006485 
2221.996032  	0.006182 
2223.924848  	0.005889 
2225.853664  	0.006293 
2227.782480  	0.007026 
2229.711296  	0.007279 
2231.640112  	0.007278 
2233.568928  	0.006512 
2235.497744  	0.006008 
2237.426560  	0.005565 
2239.355376  	0.005806 
2241.284192  	0.006082 
2243.213008  	0.006454 
2245.141824  	0.006456 
2247.070640  	0.006127 
2248.999456  	0.005993 
2250.928272  	0.006411 
2252.857088  	0.006344 
2254.785904  	0.006314 
2256.714720  	0.006693 
2258.643536  	0.007255 
2260.572352  	0.006893 
2262.501168  	0.006558 
2264.429984  	0.006763 
2266.358800  	0.007184 
2268.287616  	0.007042 
2270.216432  	0.007233 
2272.145248  	0.007203 
2274.074064  	0.007121 
2276.002880  	0.006623 
2277.931696  	0.007083 
2279.860512  	0.007899 
2281.789328  	0.007986 
2283.718144  	0.007774 
2285.646960  	0.008121 
2287.575776  	0.008226 
2289.504592  	0.007732 
2291.433408  	0.007316 
2293.362224  	0.007451 
2295.291040  	0.007606 
2297.219856  	0.007848 
2299.148672  	0.007728 
2301.077488  	0.007511 
2303.006304  	0.007422 
2304.935120  	0.007328 
2306.863936  	0.007114 
2308.792752  	0.007047 
2310.721568  	0.006824 
2312.650384  	0.006418 
2314.579200  	0.005965 
2316.508016  	0.005767 
2318.436832  	0.005136 
2320.365648  	0.004275 
2322.294464  	0.003435 
2324.223280  	0.002320 
2326.152096  	0.000569 
2328.080912  	-0.000879 
2330.009728  	-0.001862 
2331.938544  	-0.002375 
2333.867360  	-0.003539 
2335.796176  	-0.004743 
2337.724992  	-0.005424 
2339.653808  	-0.005485 
2341.582624  	-0.005604 
2343.511440  	-0.004339 
2345.440256  	-0.002432 
2347.369072  	0.000491 
2349.297888  	0.001519 
2351.226704  	-0.000852 
2353.155520  	-0.003998 
2355.084336  	-0.006551 
2357.013152  	-0.008445 
2358.941968  	-0.010085 
2360.870784  	-0.011121 
2362.799600  	-0.010185 
2364.728416  	-0.008786 
2366.657232  	-0.007091 
2368.586048  	-0.005232 
2370.514864  	-0.002550 
2372.443680  	0.000012 
2374.372496  	0.002452 
2376.301312  	0.004385 
2378.230128  	0.005970 
2380.158944  	0.006865 
2382.087760  	0.007385 
2384.016576  	0.007767 
2385.945392  	0.007900 
2387.874208  	0.007534 
2389.803024  	0.007355 
2391.731840  	0.007380 
2393.660656  	0.007528 
2395.589472  	0.007679 
2397.518288  	0.007847 
2399.447104  	0.007714 
2401.375920  	0.007500 
2403.304736  	0.007517 
2405.233552  	0.007634 
2407.162368  	0.007667 
2409.091184  	0.007754 
2411.020000  	0.007916 
2412.948816  	0.007929 
2414.877632  	0.007863 
2416.806448  	0.007878 
2418.735264  	0.008001 
2420.664080  	0.007983 
2422.592896  	0.007866 
2424.521712  	0.007982 
2426.450528  	0.008002 
2428.379344  	0.007931 
2430.308160  	0.008054 
2432.236976  	0.008192 
2434.165792  	0.008292 
2436.094608  	0.008658 
2438.023424  	0.008609 
2439.952240  	0.008710 
2441.881056  	0.008996 
2443.809872  	0.009008 
2445.738688  	0.008886 
2447.667504  	0.008834 
2449.596320  	0.008879 
2451.525136  	0.008977 
2453.453952  	0.009202 
2455.382768  	0.009475 
2457.311584  	0.009594 
2459.240400  	0.009491 
2461.169216  	0.009226 
2463.098032  	0.009203 
2465.026848  	0.009366 
2466.955664  	0.009333 
2468.884480  	0.009204 
2470.813296  	0.009456 
2472.742112  	0.009399 
2474.670928  	0.009250 
2476.599744  	0.009269 
2478.528560  	0.009610 
2480.457376  	0.010013 
2482.386192  	0.009997 
2484.315008  	0.009850 
2486.243824  	0.009846 
2488.172640  	0.009566 
2490.101456  	0.009571 
2492.030272  	0.009800 
2493.959088  	0.009752 
2495.887904  	0.009513 
2497.816720  	0.009861 
2499.745536  	0.010242 
2501.674352  	0.010103 
2503.603168  	0.009972 
2505.531984  	0.010143 
2507.460800  	0.010214 
2509.389616  	0.010188 
2511.318432  	0.010170 
2513.247248  	0.010086 
2515.176064  	0.010144 
2517.104880  	0.010538 
2519.033696  	0.010633 
2520.962512  	0.010547 
2522.891328  	0.010802 
2524.820144  	0.010854 
2526.748960  	0.010609 
2528.677776  	0.010751 
2530.606592  	0.010944 
2532.535408  	0.011079 
2534.464224  	0.011278 
2536.393040  	0.011161 
2538.321856  	0.011082 
2540.250672  	0.011356 
2542.179488  	0.011337 
2544.108304  	0.011348 
2546.037120  	0.011384 
2547.965936  	0.011658 
2549.894752  	0.011685 
2551.823568  	0.011787 
2553.752384  	0.011954 
2555.681200  	0.012110 
2557.610016  	0.012078 
2559.538832  	0.012048 
2561.467648  	0.012106 
2563.396464  	0.012400 
2565.325280  	0.012524 
2567.254096  	0.012375 
2569.182912  	0.012212 
2571.111728  	0.012060 
2573.040544  	0.011991 
2574.969360  	0.012169 
2576.898176  	0.012294 
2578.826992  	0.012555 
2580.755808  	0.012606 
2582.684624  	0.012565 
2584.613440  	0.012543 
2586.542256  	0.012770 
2588.471072  	0.012964 
2590.399888  	0.012962 
2592.328704  	0.012937 
2594.257520  	0.013165 
2596.186336  	0.013483 
2598.115152  	0.013525 
2600.043968  	0.013344 
2601.972784  	0.013375 
2603.901600  	0.013703 
2605.830416  	0.013939 
2607.759232  	0.013784 
2609.688048  	0.013871 
2611.616864  	0.013964 
2613.545680  	0.014042 
2615.474496  	0.014077 
2617.403312  	0.014104 
2619.332128  	0.014317 
2621.260944  	0.014445 
2623.189760  	0.014408 
2625.118576  	0.014469 
2627.047392  	0.014626 
2628.976208  	0.014924 
2630.905024  	0.015000 
2632.833840  	0.015123 
2634.762656  	0.015230 
2636.691472  	0.015327 
2638.620288  	0.015414 
2640.549104  	0.015446 
2642.477920  	0.015514 
2644.406736  	0.015598 
2646.335552  	0.015774 
2648.264368  	0.015959 
2650.193184  	0.016071 
2652.122000  	0.016295 
2654.050816  	0.016378 
2655.979632  	0.016255 
2657.908448  	0.016276 
2659.837264  	0.016470 
2661.766080  	0.016530 
2663.694896  	0.016573 
2665.623712  	0.016501 
2667.552528  	0.016422 
2669.481344  	0.016629 
2671.410160  	0.016884 
2673.338976  	0.017021 
2675.267792  	0.017179 
2677.196608  	0.017245 
2679.125424  	0.017292 
2681.054240  	0.017269 
2682.983056  	0.017322 
2684.911872  	0.017515 
2686.840688  	0.017675 
2688.769504  	0.017803 
2690.698320  	0.017857 
2692.627136  	0.017866 
2694.555952  	0.017908 
2696.484768  	0.017854 
2698.413584  	0.018005 
2700.342400  	0.018134 
2702.271216  	0.018328 
2704.200032  	0.018584 
2706.128848  	0.018727 
2708.057664  	0.018723 
2709.986480  	0.018685 
2711.915296  	0.018713 
2713.844112  	0.018780 
2715.772928  	0.018909 
2717.701744  	0.019078 
2719.630560  	0.019153 
2721.559376  	0.019218 
2723.488192  	0.019317 
2725.417008  	0.019502 
2727.345824  	0.019637 
2729.274640  	0.019683 
2731.203456  	0.019790 
2733.132272  	0.019947 
2735.061088  	0.020030 
2736.989904  	0.020098 
2738.918720  	0.020081 
2740.847536  	0.020048 
2742.776352  	0.020189 
2744.705168  	0.020324 
2746.633984  	0.020388 
2748.562800  	0.020490 
2750.491616  	0.020618 
2752.420432  	0.020701 
2754.349248  	0.020696 
2756.278064  	0.020738 
2758.206880  	0.020772 
2760.135696  	0.020946 
2762.064512  	0.021010 
2763.993328  	0.021002 
2765.922144  	0.021094 
2767.850960  	0.021131 
2769.779776  	0.021105 
2771.708592  	0.021205 
2773.637408  	0.021317 
2775.566224  	0.021363 
2777.495040  	0.021343 
2779.423856  	0.021375 
2781.352672  	0.021581 
2783.281488  	0.021759 
2785.210304  	0.021741 
2787.139120  	0.021860 
2789.067936  	0.021967 
2790.996752  	0.022027 
2792.925568  	0.022195 
2794.854384  	0.022383 
2796.783200  	0.022368 
2798.712016  	0.022283 
2800.640832  	0.022398 
2802.569648  	0.022543 
2804.498464  	0.022636 
2806.427280  	0.022720 
2808.356096  	0.022882 
2810.284912  	0.023046 
2812.213728  	0.022976 
2814.142544  	0.022985 
2816.071360  	0.023157 
2818.000176  	0.023182 
2819.928992  	0.022992 
2821.857808  	0.023072 
2823.786624  	0.023255 
2825.715440  	0.023299 
2827.644256  	0.023139 
2829.573072  	0.023156 
2831.501888  	0.023159 
2833.430704  	0.023048 
2835.359520  	0.022981 
2837.288336  	0.022936 
2839.217152  	0.022900 
2841.145968  	0.022834 
2843.074784  	0.022784 
2845.003600  	0.022793 
2846.932416  	0.022965 
2848.861232  	0.023089 
2850.790048  	0.023047 
2852.718864  	0.022917 
2854.647680  	0.022709 
2856.576496  	0.022537 
2858.505312  	0.022376 
2860.434128  	0.022326 
2862.362944  	0.022132 
2864.291760  	0.021949 
2866.220576  	0.021804 
2868.149392  	0.021911 
2870.078208  	0.022121 
2872.007024  	0.022331 
2873.935840  	0.022583 
2875.864656  	0.022847 
2877.793472  	0.023144 
2879.722288  	0.023237 
2881.651104  	0.023207 
2883.579920  	0.023285 
2885.508736  	0.023482 
2887.437552  	0.023747 
2889.366368  	0.023902 
2891.295184  	0.023859 
2893.224000  	0.023826 
2895.152816  	0.024011 
2897.081632  	0.023917 
2899.010448  	0.023321 
2900.939264  	0.022936 
2902.868080  	0.023421 
2904.796896  	0.023961 
2906.725712  	0.024261 
2908.654528  	0.024437 
2910.583344  	0.024720 
2912.512160  	0.025381 
2914.440976  	0.026196 
2916.369792  	0.026661 
2918.298608  	0.026999 
2920.227424  	0.027362 
2922.156240  	0.027768 
2924.085056  	0.028176 
2926.013872  	0.028699 
2927.942688  	0.029308 
2929.871504  	0.029898 
2931.800320  	0.030447 
2933.729136  	0.030792 
2935.657952  	0.030972 
2937.586768  	0.031348 
2939.515584  	0.031494 
2941.444400  	0.031565 
2943.373216  	0.031797 
2945.302032  	0.031849 
2947.230848  	0.031867 
2949.159664  	0.031765 
2951.088480  	0.031574 
2953.017296  	0.031546 
2954.946112  	0.031246 
2956.874928  	0.030733 
2958.803744  	0.030296 
2960.732560  	0.029917 
2962.661376  	0.029749 
2964.590192  	0.029409 
2966.519008  	0.028888 
2968.447824  	0.028512 
2970.376640  	0.028188 
2972.305456  	0.027774 
2974.234272  	0.027575 
2976.163088  	0.027521 
2978.091904  	0.027540 
2980.020720  	0.027479 
2981.949536  	0.027462 
2983.878352  	0.027266 
2985.807168  	0.026903 
2987.735984  	0.026771 
2989.664800  	0.026764 
2991.593616  	0.027639 
2993.522432  	0.028196 
2995.451248  	0.028331 
2997.380064  	0.028677 
2999.308880  	0.029073 
3001.237696  	0.029491 
3003.166512  	0.029884 
3005.095328  	0.030363 
3007.024144  	0.030987 
3008.952960  	0.031409 
3010.881776  	0.031767 
3012.810592  	0.032335 
3014.739408  	0.032668 
3016.668224  	0.033116 
3018.597040  	0.033548 
3020.525856  	0.033756 
3022.454672  	0.034212 
3024.383488  	0.034710 
3026.312304  	0.034966 
3028.241120  	0.035143 
3030.169936  	0.035314 
3032.098752  	0.035791 
3034.027568  	0.036046 
3035.956384  	0.036102 
3037.885200  	0.036372 
3039.814016  	0.036716 
3041.742832  	0.037241 
3043.671648  	0.037385 
3045.600464  	0.037420 
3047.529280  	0.037667 
3049.458096  	0.037998 
3051.386912  	0.038067 
3053.315728  	0.038299 
3055.244544  	0.038721 
3057.173360  	0.039213 
3059.102176  	0.039466 
3061.030992  	0.039593 
3062.959808  	0.039835 
3064.888624  	0.040208 
3066.817440  	0.040588 
3068.746256  	0.040764 
3070.675072  	0.040853 
3072.603888  	0.041219 
3074.532704  	0.041626 
3076.461520  	0.042044 
3078.390336  	0.042329 
3080.319152  	0.042692 
3082.247968  	0.043109 
3084.176784  	0.043349 
3086.105600  	0.043452 
3088.034416  	0.043694 
3089.963232  	0.044072 
3091.892048  	0.044214 
3093.820864  	0.044298 
3095.749680  	0.044647 
3097.678496  	0.044800 
3099.607312  	0.045174 
3101.536128  	0.045473 
3103.464944  	0.045699 
3105.393760  	0.045986 
3107.322576  	0.046390 
3109.251392  	0.046618 
3111.180208  	0.046793 
3113.109024  	0.046938 
3115.037840  	0.047075 
3116.966656  	0.047363 
3118.895472  	0.047713 
3120.824288  	0.047904 
3122.753104  	0.047921 
3124.681920  	0.048017 
3126.610736  	0.048270 
3128.539552  	0.048397 
3130.468368  	0.048371 
3132.397184  	0.048474 
3134.326000  	0.048679 
3136.254816  	0.048938 
3138.183632  	0.049310 
3140.112448  	0.049279 
3142.041264  	0.049224 
3143.970080  	0.049568 
3145.898896  	0.049826 
3147.827712  	0.049929 
3149.756528  	0.050173 
3151.685344  	0.050604 
3153.614160  	0.051029 
3155.542976  	0.051168 
3157.471792  	0.051181 
3159.400608  	0.051464 
3161.329424  	0.051823 
3163.258240  	0.052094 
3165.187056  	0.052296 
3167.115872  	0.052449 
3169.044688  	0.052624 
3170.973504  	0.052710 
3172.902320  	0.052773 
3174.831136  	0.052983 
3176.759952  	0.053143 
3178.688768  	0.053238 
3180.617584  	0.053258 
3182.546400  	0.053127 
3184.475216  	0.053371 
3186.404032  	0.053528 
3188.332848  	0.053566 
3190.261664  	0.053883 
3192.190480  	0.054060 
3194.119296  	0.053920 
3196.048112  	0.053890 
3197.976928  	0.054113 
3199.905744  	0.054113 
3201.834560  	0.054127 
3203.763376  	0.054290 
3205.692192  	0.054233 
3207.621008  	0.053981 
3209.549824  	0.053833 
3211.478640  	0.053743 
3213.407456  	0.053613 
3215.336272  	0.053700 
3217.265088  	0.053633 
3219.193904  	0.053284 
3221.122720  	0.052998 
3223.051536  	0.052870 
3224.980352  	0.052649 
3226.909168  	0.052297 
3228.837984  	0.052107 
3230.766800  	0.052214 
3232.695616  	0.052357 
3234.624432  	0.052331 
3236.553248  	0.052243 
3238.482064  	0.052118 
3240.410880  	0.051936 
3242.339696  	0.051778 
3244.268512  	0.051836 
3246.197328  	0.052003 
3248.126144  	0.051903 
3250.054960  	0.051767 
3251.983776  	0.051690 
3253.912592  	0.051795 
3255.841408  	0.051815 
3257.770224  	0.051855 
3259.699040  	0.052019 
3261.627856  	0.052001 
3263.556672  	0.051912 
3265.485488  	0.051774 
3267.414304  	0.051938 
3269.343120  	0.052155 
3271.271936  	0.052454 
3273.200752  	0.052650 
3275.129568  	0.052600 
3277.058384  	0.052559 
3278.987200  	0.052748 
3280.916016  	0.052871 
3282.844832  	0.052816 
3284.773648  	0.052899 
3286.702464  	0.053008 
3288.631280  	0.053134 
3290.560096  	0.053344 
3292.488912  	0.053545 
3294.417728  	0.053639 
3296.346544  	0.053571 
3298.275360  	0.053579 
3300.204176  	0.053961 
3302.132992  	0.054097 
3304.061808  	0.054151 
3305.990624  	0.054504 
3307.919440  	0.054746 
3309.848256  	0.054820 
3311.777072  	0.054782 
3313.705888  	0.054923 
3315.634704  	0.055213 
3317.563520  	0.055406 
3319.492336  	0.055498 
3321.421152  	0.055606 
3323.349968  	0.055852 
3325.278784  	0.056027 
3327.207600  	0.055996 
3329.136416  	0.055907 
3331.065232  	0.055806 
3332.994048  	0.056000 
3334.922864  	0.056098 
3336.851680  	0.055911 
3338.780496  	0.055917 
3340.709312  	0.055781 
3342.638128  	0.055605 
3344.566944  	0.055559 
3346.495760  	0.055378 
3348.424576  	0.055254 
3350.353392  	0.055198 
3352.282208  	0.055109 
3354.211024  	0.054993 
3356.139840  	0.054873 
3358.068656  	0.054608 
3359.997472  	0.054341 
3361.926288  	0.054017 
3363.855104  	0.053645 
3365.783920  	0.053375 
3367.712736  	0.053278 
3369.641552  	0.053045 
3371.570368  	0.052728 
3373.499184  	0.052448 
3375.428000  	0.052282 
3377.356816  	0.052033 
3379.285632  	0.051795 
3381.214448  	0.051582 
3383.143264  	0.051384 
3385.072080  	0.051356 
3387.000896  	0.050971 
3388.929712  	0.050566 
3390.858528  	0.050327 
3392.787344  	0.050134 
3394.716160  	0.049877 
3396.644976  	0.049565 
3398.573792  	0.049342 
3400.502608  	0.048840 
3402.431424  	0.048417 
3404.360240  	0.048111 
3406.289056  	0.047774 
3408.217872  	0.047432 
3410.146688  	0.047097 
3412.075504  	0.047216 
3414.004320  	0.047212 
3415.933136  	0.046541 
3417.861952  	0.045949 
3419.790768  	0.045850 
3421.719584  	0.045624 
3423.648400  	0.045243 
3425.577216  	0.044933 
3427.506032  	0.044584 
3429.434848  	0.044161 
3431.363664  	0.043944 
3433.292480  	0.043762 
3435.221296  	0.043576 
3437.150112  	0.043324 
3439.078928  	0.043157 
3441.007744  	0.042763 
3442.936560  	0.042339 
3444.865376  	0.041839 
3446.794192  	0.041142 
3448.723008  	0.040861 
3450.651824  	0.040717 
3452.580640  	0.040395 
3454.509456  	0.039864 
3456.438272  	0.039390 
3458.367088  	0.039237 
3460.295904  	0.039004 
3462.224720  	0.038460 
3464.153536  	0.037873 
3466.082352  	0.037573 
3468.011168  	0.037317 
3469.939984  	0.036810 
3471.868800  	0.036357 
3473.797616  	0.035995 
3475.726432  	0.035508 
3477.655248  	0.034975 
3479.584064  	0.034760 
3481.512880  	0.034509 
3483.441696  	0.033774 
3485.370512  	0.033048 
3487.299328  	0.032795 
3489.228144  	0.032577 
3491.156960  	0.032012 
3493.085776  	0.031659 
3495.014592  	0.031318 
3496.943408  	0.031081 
3498.872224  	0.030656 
3500.801040  	0.030405 
3502.729856  	0.030129 
3504.658672  	0.029517 
3506.587488  	0.028717 
3508.516304  	0.028386 
3510.445120  	0.028357 
3512.373936  	0.027950 
3514.302752  	0.027556 
3516.231568  	0.027119 
3518.160384  	0.026666 
3520.089200  	0.026428 
3522.018016  	0.026421 
3523.946832  	0.026453 
3525.875648  	0.026087 
3527.804464  	0.025576 
3529.733280  	0.025118 
3531.662096  	0.024505 
3533.590912  	0.024133 
3535.519728  	0.024148 
3537.448544  	0.023954 
3539.377360  	0.023435 
3541.306176  	0.023020 
3543.234992  	0.022723 
3545.163808  	0.022964 
3547.092624  	0.022733 
3549.021440  	0.021634 
3550.950256  	0.021056 
3552.879072  	0.021264 
3554.807888  	0.021028 
3556.736704  	0.020403 
3558.665520  	0.020225 
3560.594336  	0.020248 
3562.523152  	0.019816 
3564.451968  	0.019448 
3566.380784  	0.019496 
3568.309600  	0.019495 
3570.238416  	0.018591 
3572.167232  	0.017671 
3574.096048  	0.017253 
3576.024864  	0.016921 
3577.953680  	0.016554 
3579.882496  	0.016450 
3581.811312  	0.016232 
3583.740128  	0.015748 
3585.668944  	0.015297 
3587.597760  	0.015314 
3589.526576  	0.014964 
3591.455392  	0.013797 
3593.384208  	0.013145 
3595.313024  	0.012810 
3597.241840  	0.012427 
3599.170656  	0.011776 
3601.099472  	0.011459 
3603.028288  	0.011422 
3604.957104  	0.010942 
3606.885920  	0.010126 
3608.814736  	0.010165 
3610.743552  	0.009924 
3612.672368  	0.009090 
3614.601184  	0.008791 
3616.530000  	0.007865 
3618.458816  	0.007157 
3620.387632  	0.007151 
3622.316448  	0.006880 
3624.245264  	0.006281 
3626.174080  	0.005062 
3628.102896  	0.003660 
3630.031712  	0.004526 
3631.960528  	0.004761 
3633.889344  	0.004068 
3635.818160  	0.003502 
3637.746976  	0.003152 
3639.675792  	0.003212 
3641.604608  	0.002993 
3643.533424  	0.002389 
3645.462240  	0.001108 
3647.391056  	-0.000469 
3649.319872  	-0.001253 
3651.248688  	-0.000248 
3653.177504  	0.000244 
3655.106320  	-0.000618 
3657.035136  	-0.000761 
3658.963952  	-0.000712 
3660.892768  	-0.001213 
3662.821584  	-0.001698 
3664.750400  	-0.001992 
3666.679216  	-0.002746 
3668.608032  	-0.004241 
3670.536848  	-0.004184 
3672.465664  	-0.003587 
3674.394480  	-0.005551 
3676.323296  	-0.005008 
3678.252112  	-0.003222 
3680.180928  	-0.002931 
3682.109744  	-0.003033 
3684.038560  	-0.003385 
3685.967376  	-0.004068 
3687.896192  	-0.005436 
3689.825008  	-0.005418 
3691.753824  	-0.004381 
3693.682640  	-0.003672 
3695.611456  	-0.003851 
3697.540272  	-0.003735 
3699.469088  	-0.003793 
3701.397904  	-0.003706 
3703.326720  	-0.003115 
3705.255536  	-0.003020 
3707.184352  	-0.003714 
3709.113168  	-0.004508 
3711.041984  	-0.004444 
3712.970800  	-0.003212 
3714.899616  	-0.002304 
3716.828432  	-0.002646 
3718.757248  	-0.003291 
3720.686064  	-0.003613 
3722.614880  	-0.003171 
3724.543696  	-0.002629 
3726.472512  	-0.002521 
3728.401328  	-0.003001 
3730.330144  	-0.004647 
3732.258960  	-0.005688 
3734.187776  	-0.004659 
3736.116592  	-0.003156 
3738.045408  	-0.003156 
3739.974224  	-0.003451 
3741.903040  	-0.003883 
3743.831856  	-0.004665 
3745.760672  	-0.003506 
3747.689488  	-0.004338 
3749.618304  	-0.005635 
3751.547120  	-0.004883 
3753.475936  	-0.002831 
3755.404752  	-0.002745 
3757.333568  	-0.003432 
3759.262384  	-0.003476 
3761.191200  	-0.002711 
3763.120016  	-0.002537 
3765.048832  	-0.002922 
3766.977648  	-0.003038 
3768.906464  	-0.003518 
3770.835280  	-0.002780 
3772.764096  	-0.002113 
3774.692912  	-0.002238 
3776.621728  	-0.002721 
3778.550544  	-0.003335 
3780.479360  	-0.002808 
3782.408176  	-0.002511 
3784.336992  	-0.002924 
3786.265808  	-0.002747 
3788.194624  	-0.002488 
3790.123440  	-0.002557 
3792.052256  	-0.002630 
3793.981072  	-0.002993 
3795.909888  	-0.003511 
3797.838704  	-0.003217 
3799.767520  	-0.004310 
3801.696336  	-0.004855 
3803.625152  	-0.003572 
3805.553968  	-0.004144 
3807.482784  	-0.003742 
3809.411600  	-0.002451 
3811.340416  	-0.002405 
3813.269232  	-0.003112 
3815.198048  	-0.004516 
3817.126864  	-0.003981 
3819.055680  	-0.004332 
3820.984496  	-0.004946 
3822.913312  	-0.003290 
3824.842128  	-0.003187 
3826.770944  	-0.003295 
3828.699760  	-0.002972 
3830.628576  	-0.003490 
3832.557392  	-0.003612 
3834.486208  	-0.004182 
3836.415024  	-0.005096 
3838.343840  	-0.004777 
3840.272656  	-0.003957 
3842.201472  	-0.003705 
3844.130288  	-0.003447 
3846.059104  	-0.002819 
3847.987920  	-0.002863 
3849.916736  	-0.003709 
3851.845552  	-0.005589 
3853.774368  	-0.004981 
3855.703184  	-0.002910 
3857.632000  	-0.002736 
3859.560816  	-0.003045 
3861.489632  	-0.003559 
3863.418448  	-0.003732 
3865.347264  	-0.003231 
3867.276080  	-0.003314 
3869.204896  	-0.003900 
3871.133712  	-0.002346 
3873.062528  	-0.002621 
3874.991344  	-0.002650 
3876.920160  	-0.002649 
3878.848976  	-0.003226 
3880.777792  	-0.002821 
3882.706608  	-0.002329 
3884.635424  	-0.002930 
3886.564240  	-0.002530 
3888.493056  	-0.002560 
3890.421872  	-0.003230 
3892.350688  	-0.002863 
3894.279504  	-0.002437 
3896.208320  	-0.002663 
3898.137136  	-0.002875 
3900.065952  	-0.002804 
3901.994768  	-0.002796 
3903.923584  	-0.002577 
3905.852400  	-0.002138 
3907.781216  	-0.002451 
3909.710032  	-0.002709 
3911.638848  	-0.002639 
3913.567664  	-0.002511 
3915.496480  	-0.002461 
3917.425296  	-0.002014 
3919.354112  	-0.001905 
3921.282928  	-0.001942 
3923.211744  	-0.002106 
3925.140560  	-0.002113 
3927.069376  	-0.002366 
3928.998192  	-0.002583 
3930.927008  	-0.002226 
3932.855824  	-0.001846 
3934.784640  	-0.002051 
3936.713456  	-0.002227 
3938.642272  	-0.002128 
3940.571088  	-0.002282 
3942.499904  	-0.001862 
3944.428720  	-0.001638 
3946.357536  	-0.002069 
3948.286352  	-0.002166 
3950.215168  	-0.002297 
3952.143984  	-0.002533 
3954.072800  	-0.002602 
3956.001616  	-0.002531 
3957.930432  	-0.002316 
3959.859248  	-0.002131 
3961.788064  	-0.002056 
3963.716880  	-0.002276 
3965.645696  	-0.002550 
3967.574512  	-0.002455 
3969.503328  	-0.002456 
3971.432144  	-0.002567 
3973.360960  	-0.002462 
3975.289776  	-0.002226 
3977.218592  	-0.002122 
3979.147408  	-0.002145 
3981.076224  	-0.002348 
3983.005040  	-0.002542 
3984.933856  	-0.002423 
3986.862672  	-0.002302 
3988.791488  	-0.002356 
3990.720304  	-0.002313 
3992.649120  	-0.002313 
3994.577936  	-0.002328 
3996.506752  	-0.002399 
3998.435568  	-0.002405 
4000.364384  	-0.002428 