##TITLE=No Description
##DATA TYPE=INFRARED SPECTRUM
##XUNITS=1/CM
##YUNITS=Abs
399.264912  	0.638545 
401.193728  	0.615592 
403.122544  	0.603329 
405.051360  	0.583383 
406.980176  	0.588874 
408.908992  	0.582963 
410.837808  	0.569986 
412.766624  	0.563731 
414.695440  	0.569548 
416.624256  	0.557889 
418.553072  	0.557638 
420.481888  	0.574950 
422.410704  	0.569206 
424.339520  	0.545686 
426.268336  	0.546283 
428.197152  	0.543394 
430.125968  	0.542850 
432.054784  	0.541026 
433.983600  	0.535823 
435.912416  	0.527887 
437.841232  	0.529864 
439.770048  	0.531445 
441.698864  	0.535762 
443.627680  	0.525807 
445.556496  	0.519341 
447.485312  	0.520497 
449.414128  	0.521044 
451.342944  	0.513757 
453.271760  	0.513305 
455.200576  	0.507296 
457.129392  	0.506860 
459.058208  	0.505935 
460.987024  	0.511643 
462.915840  	0.514176 
464.844656  	0.515294 
466.773472  	0.511572 
468.702288  	0.515341 
470.631104  	0.514480 
472.559920  	0.506878 
474.488736  	0.499797 
476.417552  	0.499383 
478.346368  	0.499249 
480.275184  	0.499742 
482.204000  	0.497307 
484.132816  	0.501612 
486.061632  	0.498908 
487.990448  	0.498258 
489.919264  	0.496048 
491.848080  	0.496821 
493.776896  	0.492672 
495.705712  	0.490197 
497.634528  	0.487236 
499.563344  	0.487992 
501.492160  	0.487506 
503.420976  	0.488694 
505.349792  	0.485931 
507.278608  	0.484317 
509.207424  	0.481550 
511.136240  	0.483459 
513.065056  	0.486001 
514.993872  	0.485914 
516.922688  	0.483023 
518.851504  	0.483794 
520.780320  	0.482617 
522.709136  	0.482530 
524.637952  	0.480595 
526.566768  	0.482210 
528.495584  	0.481641 
530.424400  	0.477117 
532.353216  	0.470815 
534.282032  	0.469049 
536.210848  	0.467524 
538.139664  	0.465747 
540.068480  	0.461447 
541.997296  	0.456607 
543.926112  	0.452684 
545.854928  	0.452172 
547.783744  	0.448485 
549.712560  	0.444666 
551.641376  	0.440754 
553.570192  	0.438997 
555.499008  	0.436637 
557.427824  	0.434531 
559.356640  	0.430282 
561.285456  	0.427308 
563.214272  	0.424364 
565.143088  	0.422555 
567.071904  	0.420155 
569.000720  	0.417650 
570.929536  	0.413571 
572.858352  	0.410838 
574.787168  	0.407841 
576.715984  	0.405950 
578.644800  	0.402969 
580.573616  	0.399340 
582.502432  	0.394942 
584.431248  	0.392745 
586.360064  	0.391303 
588.288880  	0.389603 
590.217696  	0.387152 
592.146512  	0.386293 
594.075328  	0.383959 
596.004144  	0.381405 
597.932960  	0.379260 
599.861776  	0.377928 
601.790592  	0.376504 
603.719408  	0.374947 
605.648224  	0.372606 
607.577040  	0.371475 
609.505856  	0.370482 
611.434672  	0.369195 
613.363488  	0.366511 
615.292304  	0.364426 
617.221120  	0.362316 
619.149936  	0.361428 
621.078752  	0.359776 
623.007568  	0.357845 
624.936384  	0.355760 
626.865200  	0.354247 
628.794016  	0.352675 
630.722832  	0.351618 
632.651648  	0.349808 
634.580464  	0.348571 
636.509280  	0.348002 
638.438096  	0.347037 
640.366912  	0.345486 
642.295728  	0.344256 
644.224544  	0.341989 
646.153360  	0.339146 
648.082176  	0.336793 
650.010992  	0.334896 
651.939808  	0.330928 
653.868624  	0.327455 
655.797440  	0.324104 
657.726256  	0.321710 
659.655072  	0.318488 
661.583888  	0.315318 
663.512704  	0.312066 
665.441520  	0.309207 
667.370336  	0.305296 
669.299152  	0.301365 
671.227968  	0.299975 
673.156784  	0.298076 
675.085600  	0.295586 
677.014416  	0.293894 
678.943232  	0.292461 
680.872048  	0.290311 
682.800864  	0.288059 
684.729680  	0.286782 
686.658496  	0.284488 
688.587312  	0.282098 
690.516128  	0.279498 
692.444944  	0.277800 
694.373760  	0.276030 
696.302576  	0.274694 
698.231392  	0.272330 
700.160208  	0.269909 
702.089024  	0.267223 
704.017840  	0.265421 
705.946656  	0.263180 
707.875472  	0.260601 
709.804288  	0.258294 
711.733104  	0.256868 
713.661920  	0.254719 
715.590736  	0.253344 
717.519552  	0.252639 
719.448368  	0.251791 
721.377184  	0.251163 
723.306000  	0.250717 
725.234816  	0.249917 
727.163632  	0.248881 
729.092448  	0.246839 
731.021264  	0.244698 
732.950080  	0.242578 
734.878896  	0.240138 
736.807712  	0.237663 
738.736528  	0.235675 
740.665344  	0.233541 
742.594160  	0.232007 
744.522976  	0.230479 
746.451792  	0.229090 
748.380608  	0.227772 
750.309424  	0.226526 
752.238240  	0.225242 
754.167056  	0.224509 
756.095872  	0.223339 
758.024688  	0.222211 
759.953504  	0.220915 
761.882320  	0.220017 
763.811136  	0.219205 
765.739952  	0.218100 
767.668768  	0.216616 
769.597584  	0.214763 
771.526400  	0.213466 
773.455216  	0.213834 
775.384032  	0.214613 
777.312848  	0.215914 
779.241664  	0.217254 
781.170480  	0.216979 
783.099296  	0.214668 
785.028112  	0.211138 
786.956928  	0.206672 
788.885744  	0.202590 
790.814560  	0.199511 
792.743376  	0.197434 
794.672192  	0.195628 
796.601008  	0.194329 
798.529824  	0.192643 
800.458640  	0.189934 
802.387456  	0.186696 
804.316272  	0.184914 
806.245088  	0.183663 
808.173904  	0.182467 
810.102720  	0.181691 
812.031536  	0.181009 
813.960352  	0.180254 
815.889168  	0.179316 
817.817984  	0.178351 
819.746800  	0.177380 
821.675616  	0.176342 
823.604432  	0.175261 
825.533248  	0.173746 
827.462064  	0.172115 
829.390880  	0.170953 
831.319696  	0.169965 
833.248512  	0.168278 
835.177328  	0.166444 
837.106144  	0.164507 
839.034960  	0.162252 
840.963776  	0.159807 
842.892592  	0.157549 
844.821408  	0.155264 
846.750224  	0.153242 
848.679040  	0.151520 
850.607856  	0.150047 
852.536672  	0.148721 
854.465488  	0.147397 
856.394304  	0.146185 
858.323120  	0.144941 
860.251936  	0.143860 
862.180752  	0.142875 
864.109568  	0.141788 
866.038384  	0.140565 
867.967200  	0.139071 
869.896016  	0.137872 
871.824832  	0.136550 
873.753648  	0.135462 
875.682464  	0.135073 
877.611280  	0.135427 
879.540096  	0.135887 
881.468912  	0.135677 
883.397728  	0.135415 
885.326544  	0.134957 
887.255360  	0.134475 
889.184176  	0.134078 
891.112992  	0.133253 
893.041808  	0.131618 
894.970624  	0.129721 
896.899440  	0.127674 
898.828256  	0.124959 
900.757072  	0.122198 
902.685888  	0.119797 
904.614704  	0.118099 
906.543520  	0.117227 
908.472336  	0.117179 
910.401152  	0.117667 
912.329968  	0.118556 
914.258784  	0.119809 
916.187600  	0.120903 
918.116416  	0.121436 
920.045232  	0.121340 
921.974048  	0.120425 
923.902864  	0.119425 
925.831680  	0.118376 
927.760496  	0.117341 
929.689312  	0.116253 
931.618128  	0.115629 
933.546944  	0.115232 
935.475760  	0.114725 
937.404576  	0.114117 
939.333392  	0.113931 
941.262208  	0.114202 
943.191024  	0.114961 
945.119840  	0.116594 
947.048656  	0.118808 
948.977472  	0.122012 
950.906288  	0.125793 
952.835104  	0.129638 
954.763920  	0.133365 
956.692736  	0.136895 
958.621552  	0.139991 
960.550368  	0.141798 
962.479184  	0.142220 
964.408000  	0.140979 
966.336816  	0.138315 
968.265632  	0.133976 
970.194448  	0.128589 
972.123264  	0.122375 
974.052080  	0.115786 
975.980896  	0.109377 
977.909712  	0.103328 
979.838528  	0.098249 
981.767344  	0.094173 
983.696160  	0.091214 
985.624976  	0.089340 
987.553792  	0.088958 
989.482608  	0.089916 
991.411424  	0.091941 
993.340240  	0.094793 
995.269056  	0.098643 
997.197872  	0.102842 
999.126688  	0.106961 
1001.055504  	0.111228 
1002.984320  	0.115643 
1004.913136  	0.119985 
1006.841952  	0.123827 
1008.770768  	0.127360 
1010.699584  	0.130203 
1012.628400  	0.132387 
1014.557216  	0.133793 
1016.486032  	0.134872 
1018.414848  	0.135650 
1020.343664  	0.136234 
1022.272480  	0.136577 
1024.201296  	0.137023 
1026.130112  	0.138595 
1028.058928  	0.139862 
1029.987744  	0.139191 
1031.916560  	0.140223 
1033.845376  	0.143007 
1035.774192  	0.146696 
1037.703008  	0.150420 
1039.631824  	0.154190 
1041.560640  	0.158825 
1043.489456  	0.165153 
1045.418272  	0.172669 
1047.347088  	0.181105 
1049.275904  	0.189607 
1051.204720  	0.198366 
1053.133536  	0.205660 
1055.062352  	0.211990 
1056.991168  	0.216932 
1058.919984  	0.218848 
1060.848800  	0.218531 
1062.777616  	0.219674 
1064.706432  	0.221312 
1066.635248  	0.221128 
1068.564064  	0.216734 
1070.492880  	0.212918 
1072.421696  	0.210032 
1074.350512  	0.207581 
1076.279328  	0.205071 
1078.208144  	0.203050 
1080.136960  	0.201056 
1082.065776  	0.198954 
1083.994592  	0.196687 
1085.923408  	0.194375 
1087.852224  	0.191108 
1089.781040  	0.187729 
1091.709856  	0.183265 
1093.638672  	0.178491 
1095.567488  	0.172994 
1097.496304  	0.167431 
1099.425120  	0.161227 
1101.353936  	0.154744 
1103.282752  	0.147816 
1105.211568  	0.140691 
1107.140384  	0.133110 
1109.069200  	0.125633 
1110.998016  	0.118620 
1112.926832  	0.112126 
1114.855648  	0.105731 
1116.784464  	0.099309 
1118.713280  	0.093607 
1120.642096  	0.088484 
1122.570912  	0.083546 
1124.499728  	0.079256 
1126.428544  	0.075223 
1128.357360  	0.071275 
1130.286176  	0.067723 
1132.214992  	0.064830 
1134.143808  	0.062332 
1136.072624  	0.059959 
1138.001440  	0.057509 
1139.930256  	0.055314 
1141.859072  	0.053514 
1143.787888  	0.051456 
1145.716704  	0.049702 
1147.645520  	0.048511 
1149.574336  	0.047397 
1151.503152  	0.046417 
1153.431968  	0.045994 
1155.360784  	0.045808 
1157.289600  	0.046028 
1159.218416  	0.046465 
1161.147232  	0.047091 
1163.076048  	0.047821 
1165.004864  	0.048906 
1166.933680  	0.049861 
1168.862496  	0.050961 
1170.791312  	0.052388 
1172.720128  	0.053651 
1174.648944  	0.054667 
1176.577760  	0.055990 
1178.506576  	0.057553 
1180.435392  	0.058935 
1182.364208  	0.060202 
1184.293024  	0.061618 
1186.221840  	0.063234 
1188.150656  	0.065000 
1190.079472  	0.067043 
1192.008288  	0.069485 
1193.937104  	0.072354 
1195.865920  	0.075692 
1197.794736  	0.079461 
1199.723552  	0.083720 
1201.652368  	0.088132 
1203.581184  	0.092597 
1205.510000  	0.096971 
1207.438816  	0.101556 
1209.367632  	0.106121 
1211.296448  	0.110470 
1213.225264  	0.114698 
1215.154080  	0.118519 
1217.082896  	0.121837 
1219.011712  	0.124602 
1220.940528  	0.127272 
1222.869344  	0.129564 
1224.798160  	0.131468 
1226.726976  	0.132811 
1228.655792  	0.134053 
1230.584608  	0.134716 
1232.513424  	0.134746 
1234.442240  	0.133759 
1236.371056  	0.132147 
1238.299872  	0.130158 
1240.228688  	0.128512 
1242.157504  	0.125771 
1244.086320  	0.121517 
1246.015136  	0.117306 
1247.943952  	0.113466 
1249.872768  	0.109429 
1251.801584  	0.104591 
1253.730400  	0.099839 
1255.659216  	0.095277 
1257.588032  	0.090764 
1259.516848  	0.086388 
1261.445664  	0.082130 
1263.374480  	0.078166 
1265.303296  	0.074466 
1267.232112  	0.071272 
1269.160928  	0.068663 
1271.089744  	0.066719 
1273.018560  	0.065476 
1274.947376  	0.064760 
1276.876192  	0.064128 
1278.805008  	0.063223 
1280.733824  	0.061880 
1282.662640  	0.059962 
1284.591456  	0.057486 
1286.520272  	0.054874 
1288.449088  	0.052824 
1290.377904  	0.051327 
1292.306720  	0.050189 
1294.235536  	0.048794 
1296.164352  	0.046738 
1298.093168  	0.044400 
1300.021984  	0.042172 
1301.950800  	0.040011 
1303.879616  	0.038049 
1305.808432  	0.036427 
1307.737248  	0.035024 
1309.666064  	0.033696 
1311.594880  	0.032793 
1313.523696  	0.032180 
1315.452512  	0.031830 
1317.381328  	0.031799 
1319.310144  	0.032144 
1321.238960  	0.032705 
1323.167776  	0.033369 
1325.096592  	0.033784 
1327.025408  	0.033917 
1328.954224  	0.033721 
1330.883040  	0.033313 
1332.811856  	0.032686 
1334.740672  	0.032039 
1336.669488  	0.031261 
1338.598304  	0.030753 
1340.527120  	0.030574 
1342.455936  	0.030466 
1344.384752  	0.030514 
1346.313568  	0.030923 
1348.242384  	0.031637 
1350.171200  	0.032644 
1352.100016  	0.033863 
1354.028832  	0.035210 
1355.957648  	0.036708 
1357.886464  	0.038186 
1359.815280  	0.039289 
1361.744096  	0.040434 
1363.672912  	0.042205 
1365.601728  	0.043503 
1367.530544  	0.044197 
1369.459360  	0.044866 
1371.388176  	0.045083 
1373.316992  	0.044809 
1375.245808  	0.044626 
1377.174624  	0.044119 
1379.103440  	0.043193 
1381.032256  	0.042150 
1382.961072  	0.041105 
1384.889888  	0.039988 
1386.818704  	0.038591 
1388.747520  	0.037558 
1390.676336  	0.037307 
1392.605152  	0.038008 
1394.533968  	0.037926 
1396.462784  	0.036097 
1398.391600  	0.035677 
1400.320416  	0.036971 
1402.249232  	0.037938 
1404.178048  	0.038866 
1406.106864  	0.040005 
1408.035680  	0.040935 
1409.964496  	0.041594 
1411.893312  	0.042302 
1413.822128  	0.042702 
1415.750944  	0.042595 
1417.679760  	0.041977 
1419.608576  	0.041949 
1421.537392  	0.041595 
1423.466208  	0.040567 
1425.395024  	0.039601 
1427.323840  	0.038337 
1429.252656  	0.036974 
1431.181472  	0.036095 
1433.110288  	0.035667 
1435.039104  	0.035364 
1436.967920  	0.035973 
1438.896736  	0.036735 
1440.825552  	0.037032 
1442.754368  	0.037408 
1444.683184  	0.037367 
1446.612000  	0.037375 
1448.540816  	0.038050 
1450.469632  	0.038455 
1452.398448  	0.038365 
1454.327264  	0.037802 
1456.256080  	0.036874 
1458.184896  	0.037585 
1460.113712  	0.038143 
1462.042528  	0.038179 
1463.971344  	0.038088 
1465.900160  	0.039337 
1467.828976  	0.040548 
1469.757792  	0.041684 
1471.686608  	0.043338 
1473.615424  	0.046839 
1475.544240  	0.049314 
1477.473056  	0.051498 
1479.401872  	0.052489 
1481.330688  	0.053064 
1483.259504  	0.053253 
1485.188320  	0.052748 
1487.117136  	0.051540 
1489.045952  	0.050268 
1490.974768  	0.048819 
1492.903584  	0.046932 
1494.832400  	0.044360 
1496.761216  	0.041868 
1498.690032  	0.039695 
1500.618848  	0.037732 
1502.547664  	0.035622 
1504.476480  	0.033385 
1506.405296  	0.031171 
1508.334112  	0.030776 
1510.262928  	0.030333 
1512.191744  	0.029641 
1514.120560  	0.028653 
1516.049376  	0.028186 
1517.978192  	0.028745 
1519.907008  	0.029016 
1521.835824  	0.030712 
1523.764640  	0.032570 
1525.693456  	0.033967 
1527.622272  	0.035392 
1529.551088  	0.036193 
1531.479904  	0.036048 
1533.408720  	0.035624 
1535.337536  	0.034981 
1537.266352  	0.033005 
1539.195168  	0.030430 
1541.123984  	0.029225 
1543.052800  	0.028885 
1544.981616  	0.028372 
1546.910432  	0.027916 
1548.839248  	0.027100 
1550.768064  	0.027198 
1552.696880  	0.027135 
1554.625696  	0.027434 
1556.554512  	0.026978 
1558.483328  	0.027246 
1560.412144  	0.031259 
1562.340960  	0.032878 
1564.269776  	0.034251 
1566.198592  	0.036594 
1568.127408  	0.038316 
1570.056224  	0.041952 
1571.985040  	0.044805 
1573.913856  	0.046028 
1575.842672  	0.047267 
1577.771488  	0.049098 
1579.700304  	0.049106 
1581.629120  	0.049095 
1583.557936  	0.049095 
1585.486752  	0.049953 
1587.415568  	0.051360 
1589.344384  	0.053750 
1591.273200  	0.056627 
1593.202016  	0.060112 
1595.130832  	0.063606 
1597.059648  	0.067222 
1598.988464  	0.070006 
1600.917280  	0.072370 
1602.846096  	0.073794 
1604.774912  	0.074606 
1606.703728  	0.074425 
1608.632544  	0.074124 
1610.561360  	0.073560 
1612.490176  	0.073163 
1614.418992  	0.072408 
1616.347808  	0.073098 
1618.276624  	0.074976 
1620.205440  	0.076846 
1622.134256  	0.078858 
1624.063072  	0.083128 
1625.991888  	0.086926 
1627.920704  	0.091500 
1629.849520  	0.096665 
1631.778336  	0.101174 
1633.707152  	0.104618 
1635.635968  	0.110113 
1637.564784  	0.115795 
1639.493600  	0.119228 
1641.422416  	0.122107 
1643.351232  	0.124329 
1645.280048  	0.125222 
1647.208864  	0.126851 
1649.137680  	0.127800 
1651.066496  	0.127144 
1652.995312  	0.126098 
1654.924128  	0.127429 
1656.852944  	0.126632 
1658.781760  	0.125575 
1660.710576  	0.124267 
1662.639392  	0.123238 
1664.568208  	0.122206 
1666.497024  	0.120876 
1668.425840  	0.119223 
1670.354656  	0.118389 
1672.283472  	0.117609 
1674.212288  	0.116779 
1676.141104  	0.116834 
1678.069920  	0.117096 
1679.998736  	0.116987 
1681.927552  	0.116601 
1683.856368  	0.116641 
1685.785184  	0.118524 
1687.714000  	0.118106 
1689.642816  	0.117669 
1691.571632  	0.116928 
1693.500448  	0.115456 
1695.429264  	0.113193 
1697.358080  	0.111261 
1699.286896  	0.108711 
1701.215712  	0.106339 
1703.144528  	0.104074 
1705.073344  	0.100970 
1707.002160  	0.097573 
1708.930976  	0.094304 
1710.859792  	0.090417 
1712.788608  	0.085888 
1714.717424  	0.080911 
1716.646240  	0.075758 
1718.575056  	0.070715 
1720.503872  	0.065900 
1722.432688  	0.061168 
1724.361504  	0.056123 
1726.290320  	0.051562 
1728.219136  	0.046892 
1730.147952  	0.042579 
1732.076768  	0.038620 
1734.005584  	0.035091 
1735.934400  	0.031811 
1737.863216  	0.029071 
1739.792032  	0.026035 
1741.720848  	0.023868 
1743.649664  	0.021744 
1745.578480  	0.019824 
1747.507296  	0.017778 
1749.436112  	0.016586 
1751.364928  	0.016048 
1753.293744  	0.015670 
1755.222560  	0.014484 
1757.151376  	0.013834 
1759.080192  	0.013036 
1761.009008  	0.012677 
1762.937824  	0.012572 
1764.866640  	0.012170 
1766.795456  	0.011339 
1768.724272  	0.011050 
1770.653088  	0.010163 
1772.581904  	0.010427 
1774.510720  	0.010676 
1776.439536  	0.010565 
1778.368352  	0.010155 
1780.297168  	0.010160 
1782.225984  	0.009950 
1784.154800  	0.009747 
1786.083616  	0.009895 
1788.012432  	0.009763 
1789.941248  	0.009023 
1791.870064  	0.009199 
1793.798880  	0.009588 
1795.727696  	0.009449 
1797.656512  	0.009136 
1799.585328  	0.008906 
1801.514144  	0.008733 
1803.442960  	0.008801 
1805.371776  	0.008694 
1807.300592  	0.008422 
1809.229408  	0.008011 
1811.158224  	0.008106 
1813.087040  	0.008028 
1815.015856  	0.007867 
1816.944672  	0.007849 
1818.873488  	0.008325 
1820.802304  	0.008214 
1822.731120  	0.007795 
1824.659936  	0.007470 
1826.588752  	0.007719 
1828.517568  	0.007403 
1830.446384  	0.007938 
1832.375200  	0.008164 
1834.304016  	0.007969 
1836.232832  	0.007876 
1838.161648  	0.008130 
1840.090464  	0.007857 
1842.019280  	0.007203 
1843.948096  	0.007047 
1845.876912  	0.007743 
1847.805728  	0.007794 
1849.734544  	0.007985 
1851.663360  	0.007990 
1853.592176  	0.007972 
1855.520992  	0.007748 
1857.449808  	0.007975 
1859.378624  	0.007728 
1861.307440  	0.007640 
1863.236256  	0.007526 
1865.165072  	0.007496 
1867.093888  	0.007373 
1869.022704  	0.007704 
1870.951520  	0.007805 
1872.880336  	0.008181 
1874.809152  	0.007956 
1876.737968  	0.007604 
1878.666784  	0.007224 
1880.595600  	0.007417 
1882.524416  	0.007604 
1884.453232  	0.007512 
1886.382048  	0.007175 
1888.310864  	0.007365 
1890.239680  	0.007900 
1892.168496  	0.008108 
1894.097312  	0.007506 
1896.026128  	0.007532 
1897.954944  	0.007344 
1899.883760  	0.007165 
1901.812576  	0.007005 
1903.741392  	0.007412 
1905.670208  	0.007517 
1907.599024  	0.007575 
1909.527840  	0.007350 
1911.456656  	0.007716 
1913.385472  	0.008058 
1915.314288  	0.008169 
1917.243104  	0.007511 
1919.171920  	0.007322 
1921.100736  	0.007517 
1923.029552  	0.007784 
1924.958368  	0.007207 
1926.887184  	0.007493 
1928.816000  	0.007405 
1930.744816  	0.006738 
1932.673632  	0.006600 
1934.602448  	0.007478 
1936.531264  	0.007617 
1938.460080  	0.007680 
1940.388896  	0.007176 
1942.317712  	0.006645 
1944.246528  	0.006762 
1946.175344  	0.007900 
1948.104160  	0.007350 
1950.032976  	0.007023 
1951.961792  	0.007498 
1953.890608  	0.007656 
1955.819424  	0.006572 
1957.748240  	0.006365 
1959.677056  	0.007172 
1961.605872  	0.007534 
1963.534688  	0.006322 
1965.463504  	0.006667 
1967.392320  	0.006464 
1969.321136  	0.006485 
1971.249952  	0.007853 
1973.178768  	0.010046 
1975.107584  	0.008446 
1977.036400  	0.006988 
1978.965216  	0.008467 
1980.894032  	0.008922 
1982.822848  	0.007702 
1984.751664  	0.008080 
1986.680480  	0.008101 
1988.609296  	0.008389 
1990.538112  	0.008209 
1992.466928  	0.008413 
1994.395744  	0.007878 
1996.324560  	0.007811 
1998.253376  	0.007517 
2000.182192  	0.007749 
2002.111008  	0.007621 
2004.039824  	0.007201 
2005.968640  	0.006576 
2007.897456  	0.007251 
2009.826272  	0.006705 
2011.755088  	0.006113 
2013.683904  	0.006833 
2015.612720  	0.007327 
2017.541536  	0.006568 
2019.470352  	0.007308 
2021.399168  	0.006769 
2023.327984  	0.006795 
2025.256800  	0.006256 
2027.185616  	0.006231 
2029.114432  	0.006798 
2031.043248  	0.008345 
2032.972064  	0.008195 
2034.900880  	0.008180 
2036.829696  	0.007705 
2038.758512  	0.007743 
2040.687328  	0.007751 
2042.616144  	0.007473 
2044.544960  	0.007247 
2046.473776  	0.008105 
2048.402592  	0.008069 
2050.331408  	0.009204 
2052.260224  	0.009311 
2054.189040  	0.008848 
2056.117856  	0.007921 
2058.046672  	0.007717 
2059.975488  	0.007567 
2061.904304  	0.007582 
2063.833120  	0.008290 
2065.761936  	0.008758 
2067.690752  	0.008100 
2069.619568  	0.007788 
2071.548384  	0.007312 
2073.477200  	0.007501 
2075.406016  	0.008370 
2077.334832  	0.008819 
2079.263648  	0.008285 
2081.192464  	0.008284 
2083.121280  	0.008807 
2085.050096  	0.008608 
2086.978912  	0.008229 
2088.907728  	0.008129 
2090.836544  	0.007815 
2092.765360  	0.007826 
2094.694176  	0.007842 
2096.622992  	0.007928 
2098.551808  	0.007955 
2100.480624  	0.008066 
2102.409440  	0.007790 
2104.338256  	0.008409 
2106.267072  	0.008870 
2108.195888  	0.009116 
2110.124704  	0.009612 
2112.053520  	0.009520 
2113.982336  	0.008783 
2115.911152  	0.008680 
2117.839968  	0.008182 
2119.768784  	0.007607 
2121.697600  	0.007215 
2123.626416  	0.006974 
2125.555232  	0.007149 
2127.484048  	0.007755 
2129.412864  	0.007421 
2131.341680  	0.006526 
2133.270496  	0.006551 
2135.199312  	0.006538 
2137.128128  	0.006983 
2139.056944  	0.007321 
2140.985760  	0.006168 
2142.914576  	0.006461 
2144.843392  	0.006765 
2146.772208  	0.007089 
2148.701024  	0.006910 
2150.629840  	0.006939 
2152.558656  	0.006741 
2154.487472  	0.006088 
2156.416288  	0.005216 
2158.345104  	0.007461 
2160.273920  	0.009459 
2162.202736  	0.009806 
2164.131552  	0.009613 
2166.060368  	0.010240 
2167.989184  	0.009136 
2169.918000  	0.008336 
2171.846816  	0.008247 
2173.775632  	0.008971 
2175.704448  	0.009598 
2177.633264  	0.009527 
2179.562080  	0.009059 
2181.490896  	0.008510 
2183.419712  	0.008064 
2185.348528  	0.008591 
2187.277344  	0.008244 
2189.206160  	0.008096 
2191.134976  	0.008923 
2193.063792  	0.010209 
2194.992608  	0.009880 
2196.921424  	0.008817 
2198.850240  	0.009496 
2200.779056  	0.009637 
2202.707872  	0.009142 
2204.636688  	0.008775 
2206.565504  	0.008544 
2208.494320  	0.009238 
2210.423136  	0.008503 
2212.351952  	0.008221 
2214.280768  	0.008489 
2216.209584  	0.008346 
2218.138400  	0.008366 
2220.067216  	0.008430 
2221.996032  	0.008236 
2223.924848  	0.007918 
2225.853664  	0.008769 
2227.782480  	0.009302 
2229.711296  	0.008945 
2231.640112  	0.008756 
2233.568928  	0.008369 
2235.497744  	0.008448 
2237.426560  	0.008432 
2239.355376  	0.008543 
2241.284192  	0.008245 
2243.213008  	0.008256 
2245.141824  	0.008373 
2247.070640  	0.008045 
2248.999456  	0.007995 
2250.928272  	0.008330 
2252.857088  	0.008000 
2254.785904  	0.008202 
2256.714720  	0.009057 
2258.643536  	0.009473 
2260.572352  	0.009116 
2262.501168  	0.009058 
2264.429984  	0.009171 
2266.358800  	0.009573 
2268.287616  	0.009650 
2270.216432  	0.009733 
2272.145248  	0.009482 
2274.074064  	0.009412 
2276.002880  	0.009404 
2277.931696  	0.009732 
2279.860512  	0.010003 
2281.789328  	0.010161 
2283.718144  	0.010049 
2285.646960  	0.010157 
2287.575776  	0.010167 
2289.504592  	0.009724 
2291.433408  	0.009264 
2293.362224  	0.009184 
2295.291040  	0.009164 
2297.219856  	0.009340 
2299.148672  	0.009258 
2301.077488  	0.009231 
2303.006304  	0.009347 
2304.935120  	0.009293 
2306.863936  	0.009076 
2308.792752  	0.009218 
2310.721568  	0.009290 
2312.650384  	0.009257 
2314.579200  	0.009390 
2316.508016  	0.009532 
2318.436832  	0.009186 
2320.365648  	0.009148 
2322.294464  	0.009291 
2324.223280  	0.009204 
2326.152096  	0.008307 
2328.080912  	0.007616 
2330.009728  	0.007619 
2331.938544  	0.007631 
2333.867360  	0.006949 
2335.796176  	0.006537 
2337.724992  	0.006543 
2339.653808  	0.006582 
2341.582624  	0.006770 
2343.511440  	0.007765 
2345.440256  	0.008395 
2347.369072  	0.008416 
2349.297888  	0.007665 
2351.226704  	0.006789 
2353.155520  	0.006404 
2355.084336  	0.005926 
2357.013152  	0.005704 
2358.941968  	0.005517 
2360.870784  	0.005306 
2362.799600  	0.006188 
2364.728416  	0.006487 
2366.657232  	0.006358 
2368.586048  	0.006326 
2370.514864  	0.007171 
2372.443680  	0.007747 
2374.372496  	0.008169 
2376.301312  	0.008610 
2378.230128  	0.008892 
2380.158944  	0.008770 
2382.087760  	0.008808 
2384.016576  	0.009099 
2385.945392  	0.009328 
2387.874208  	0.009072 
2389.803024  	0.008737 
2391.731840  	0.008555 
2393.660656  	0.008636 
2395.589472  	0.008882 
2397.518288  	0.009081 
2399.447104  	0.009006 
2401.375920  	0.008921 
2403.304736  	0.008910 
2405.233552  	0.008915 
2407.162368  	0.009103 
2409.091184  	0.009091 
2411.020000  	0.009108 
2412.948816  	0.009348 
2414.877632  	0.009312 
2416.806448  	0.009494 
2418.735264  	0.009633 
2420.664080  	0.009419 
2422.592896  	0.009144 
2424.521712  	0.009241 
2426.450528  	0.009394 
2428.379344  	0.009203 
2430.308160  	0.009237 
2432.236976  	0.009457 
2434.165792  	0.009676 
2436.094608  	0.009924 
2438.023424  	0.010039 
2439.952240  	0.010089 
2441.881056  	0.010033 
2443.809872  	0.009822 
2445.738688  	0.009652 
2447.667504  	0.009794 
2449.596320  	0.010021 
2451.525136  	0.010089 
2453.453952  	0.009963 
2455.382768  	0.010276 
2457.311584  	0.010537 
2459.240400  	0.010346 
2461.169216  	0.010159 
2463.098032  	0.010229 
2465.026848  	0.010173 
2466.955664  	0.010137 
2468.884480  	0.010045 
2470.813296  	0.010151 
2472.742112  	0.010063 
2474.670928  	0.010063 
2476.599744  	0.010224 
2478.528560  	0.010314 
2480.457376  	0.010520 
2482.386192  	0.010628 
2484.315008  	0.010543 
2486.243824  	0.010542 
2488.172640  	0.010331 
2490.101456  	0.010355 
2492.030272  	0.010629 
2493.959088  	0.010387 
2495.887904  	0.010107 
2497.816720  	0.010170 
2499.745536  	0.010176 
2501.674352  	0.010421 
2503.603168  	0.010484 
2505.531984  	0.010495 
2507.460800  	0.010768 
2509.389616  	0.010929 
2511.318432  	0.010539 
2513.247248  	0.010527 
2515.176064  	0.010679 
2517.104880  	0.011011 
2519.033696  	0.011200 
2520.962512  	0.011122 
2522.891328  	0.011279 
2524.820144  	0.011349 
2526.748960  	0.011259 
2528.677776  	0.011392 
2530.606592  	0.011392 
2532.535408  	0.011309 
2534.464224  	0.011414 
2536.393040  	0.011498 
2538.321856  	0.011414 
2540.250672  	0.011538 
2542.179488  	0.011533 
2544.108304  	0.011538 
2546.037120  	0.011583 
2547.965936  	0.011877 
2549.894752  	0.011953 
2551.823568  	0.011934 
2553.752384  	0.011902 
2555.681200  	0.012062 
2557.610016  	0.012058 
2559.538832  	0.011877 
2561.467648  	0.012048 
2563.396464  	0.012409 
2565.325280  	0.012532 
2567.254096  	0.012546 
2569.182912  	0.012467 
2571.111728  	0.012312 
2573.040544  	0.012204 
2574.969360  	0.012203 
2576.898176  	0.012288 
2578.826992  	0.012537 
2580.755808  	0.012523 
2582.684624  	0.012461 
2584.613440  	0.012510 
2586.542256  	0.012770 
2588.471072  	0.012890 
2590.399888  	0.012862 
2592.328704  	0.012983 
2594.257520  	0.013304 
2596.186336  	0.013521 
2598.115152  	0.013498 
2600.043968  	0.013279 
2601.972784  	0.013262 
2603.901600  	0.013441 
2605.830416  	0.013446 
2607.759232  	0.013271 
2609.688048  	0.013490 
2611.616864  	0.013644 
2613.545680  	0.013795 
2615.474496  	0.013828 
2617.403312  	0.013773 
2619.332128  	0.013995 
2621.260944  	0.014109 
2623.189760  	0.014011 
2625.118576  	0.014083 
2627.047392  	0.014192 
2628.976208  	0.014470 
2630.905024  	0.014608 
2632.833840  	0.014776 
2634.762656  	0.014942 
2636.691472  	0.014875 
2638.620288  	0.014834 
2640.549104  	0.014996 
2642.477920  	0.015017 
2644.406736  	0.015026 
2646.335552  	0.015279 
2648.264368  	0.015464 
2650.193184  	0.015545 
2652.122000  	0.015716 
2654.050816  	0.015800 
2655.979632  	0.015660 
2657.908448  	0.015670 
2659.837264  	0.015756 
2661.766080  	0.015609 
2663.694896  	0.015545 
2665.623712  	0.015558 
2667.552528  	0.015564 
2669.481344  	0.015666 
2671.410160  	0.015908 
2673.338976  	0.016089 
2675.267792  	0.016132 
2677.196608  	0.016150 
2679.125424  	0.016224 
2681.054240  	0.016211 
2682.983056  	0.016254 
2684.911872  	0.016413 
2686.840688  	0.016564 
2688.769504  	0.016647 
2690.698320  	0.016703 
2692.627136  	0.016806 
2694.555952  	0.016828 
2696.484768  	0.016754 
2698.413584  	0.016819 
2700.342400  	0.016935 
2702.271216  	0.017060 
2704.200032  	0.017320 
2706.128848  	0.017423 
2708.057664  	0.017421 
2709.986480  	0.017440 
2711.915296  	0.017551 
2713.844112  	0.017636 
2715.772928  	0.017753 
2717.701744  	0.017959 
2719.630560  	0.017934 
2721.559376  	0.017941 
2723.488192  	0.018034 
2725.417008  	0.018297 
2727.345824  	0.018529 
2729.274640  	0.018586 
2731.203456  	0.018487 
2733.132272  	0.018483 
2735.061088  	0.018638 
2736.989904  	0.018719 
2738.918720  	0.018779 
2740.847536  	0.018844 
2742.776352  	0.018977 
2744.705168  	0.019174 
2746.633984  	0.019260 
2748.562800  	0.019305 
2750.491616  	0.019450 
2752.420432  	0.019460 
2754.349248  	0.019444 
2756.278064  	0.019538 
2758.206880  	0.019612 
2760.135696  	0.019795 
2762.064512  	0.019784 
2763.993328  	0.019737 
2765.922144  	0.019841 
2767.850960  	0.019903 
2769.779776  	0.019859 
2771.708592  	0.019950 
2773.637408  	0.020009 
2775.566224  	0.020078 
2777.495040  	0.020095 
2779.423856  	0.020104 
2781.352672  	0.020216 
2783.281488  	0.020338 
2785.210304  	0.020415 
2787.139120  	0.020492 
2789.067936  	0.020604 
2790.996752  	0.020766 
2792.925568  	0.020924 
2794.854384  	0.020995 
2796.783200  	0.020962 
2798.712016  	0.020851 
2800.640832  	0.020934 
2802.569648  	0.021153 
2804.498464  	0.021287 
2806.427280  	0.021434 
2808.356096  	0.021518 
2810.284912  	0.021671 
2812.213728  	0.021750 
2814.142544  	0.021816 
2816.071360  	0.021983 
2818.000176  	0.022028 
2819.928992  	0.022073 
2821.857808  	0.022253 
2823.786624  	0.022357 
2825.715440  	0.022496 
2827.644256  	0.022555 
2829.573072  	0.022627 
2831.501888  	0.022754 
2833.430704  	0.022947 
2835.359520  	0.023156 
2837.288336  	0.023265 
2839.217152  	0.023382 
2841.145968  	0.023459 
2843.074784  	0.023522 
2845.003600  	0.023735 
2846.932416  	0.024100 
2848.861232  	0.024500 
2850.790048  	0.024799 
2852.718864  	0.024940 
2854.647680  	0.025289 
2856.576496  	0.025849 
2858.505312  	0.026235 
2860.434128  	0.026613 
2862.362944  	0.027016 
2864.291760  	0.027554 
2866.220576  	0.028127 
2868.149392  	0.028747 
2870.078208  	0.029386 
2872.007024  	0.029846 
2873.935840  	0.030175 
2875.864656  	0.030783 
2877.793472  	0.031748 
2879.722288  	0.032621 
2881.651104  	0.033388 
2883.579920  	0.033990 
2885.508736  	0.034343 
2887.437552  	0.034562 
2889.366368  	0.034795 
2891.295184  	0.035161 
2893.224000  	0.035456 
2895.152816  	0.035736 
2897.081632  	0.035872 
2899.010448  	0.036706 
2900.939264  	0.037671 
2902.868080  	0.037248 
2904.796896  	0.036825 
2906.725712  	0.036747 
2908.654528  	0.036777 
2910.583344  	0.037013 
2912.512160  	0.037274 
2914.440976  	0.037271 
2916.369792  	0.037292 
2918.298608  	0.037454 
2920.227424  	0.037795 
2922.156240  	0.038173 
2924.085056  	0.038301 
2926.013872  	0.038585 
2927.942688  	0.038991 
2929.871504  	0.039187 
2931.800320  	0.039297 
2933.729136  	0.039457 
2935.657952  	0.039719 
2937.586768  	0.039979 
2939.515584  	0.040090 
2941.444400  	0.040396 
2943.373216  	0.040808 
2945.302032  	0.041102 
2947.230848  	0.041295 
2949.159664  	0.041550 
2951.088480  	0.041972 
2953.017296  	0.042417 
2954.946112  	0.042635 
2956.874928  	0.042852 
2958.803744  	0.043067 
2960.732560  	0.043222 
2962.661376  	0.043515 
2964.590192  	0.043787 
2966.519008  	0.044193 
2968.447824  	0.044475 
2970.376640  	0.044697 
2972.305456  	0.044547 
2974.234272  	0.044077 
2976.163088  	0.043804 
2978.091904  	0.043538 
2980.020720  	0.043427 
2981.949536  	0.043245 
2983.878352  	0.043051 
2985.807168  	0.043354 
2987.735984  	0.044010 
2989.664800  	0.043899 
2991.593616  	0.042208 
2993.522432  	0.041061 
2995.451248  	0.040736 
2997.380064  	0.040479 
2999.308880  	0.040058 
3001.237696  	0.039448 
3003.166512  	0.038737 
3005.095328  	0.038056 
3007.024144  	0.037624 
3008.952960  	0.037186 
3010.881776  	0.036599 
3012.810592  	0.036066 
3014.739408  	0.035587 
3016.668224  	0.035324 
3018.597040  	0.034865 
3020.525856  	0.034296 
3022.454672  	0.033935 
3024.383488  	0.033668 
3026.312304  	0.033534 
3028.241120  	0.033296 
3030.169936  	0.032918 
3032.098752  	0.032875 
3034.027568  	0.032654 
3035.956384  	0.032369 
3037.885200  	0.032438 
3039.814016  	0.032653 
3041.742832  	0.032782 
3043.671648  	0.032694 
3045.600464  	0.032613 
3047.529280  	0.032697 
3049.458096  	0.032774 
3051.386912  	0.032784 
3053.315728  	0.032999 
3055.244544  	0.033317 
3057.173360  	0.033732 
3059.102176  	0.033952 
3061.030992  	0.034058 
3062.959808  	0.034296 
3064.888624  	0.034745 
3066.817440  	0.035186 
3068.746256  	0.035382 
3070.675072  	0.035384 
3072.603888  	0.035613 
3074.532704  	0.036045 
3076.461520  	0.036408 
3078.390336  	0.036599 
3080.319152  	0.036822 
3082.247968  	0.037198 
3084.176784  	0.037657 
3086.105600  	0.037915 
3088.034416  	0.038117 
3089.963232  	0.038474 
3091.892048  	0.038809 
3093.820864  	0.038866 
3095.749680  	0.039133 
3097.678496  	0.039326 
3099.607312  	0.039585 
3101.536128  	0.039890 
3103.464944  	0.040335 
3105.393760  	0.040682 
3107.322576  	0.040972 
3109.251392  	0.041289 
3111.180208  	0.041515 
3113.109024  	0.041657 
3115.037840  	0.041906 
3116.966656  	0.042181 
3118.895472  	0.042356 
3120.824288  	0.042569 
3122.753104  	0.042940 
3124.681920  	0.043207 
3126.610736  	0.043316 
3128.539552  	0.043470 
3130.468368  	0.043635 
3132.397184  	0.043910 
3134.326000  	0.044127 
3136.254816  	0.044153 
3138.183632  	0.044232 
3140.112448  	0.044292 
3142.041264  	0.044441 
3143.970080  	0.044817 
3145.898896  	0.045153 
3147.827712  	0.045273 
3149.756528  	0.045490 
3151.685344  	0.045857 
3153.614160  	0.046095 
3155.542976  	0.046126 
3157.471792  	0.046297 
3159.400608  	0.046915 
3161.329424  	0.047445 
3163.258240  	0.047638 
3165.187056  	0.047730 
3167.115872  	0.047788 
3169.044688  	0.047993 
3170.973504  	0.048098 
3172.902320  	0.048185 
3174.831136  	0.048326 
3176.759952  	0.048591 
3178.688768  	0.048857 
3180.617584  	0.049014 
3182.546400  	0.048952 
3184.475216  	0.049251 
3186.404032  	0.049363 
3188.332848  	0.049329 
3190.261664  	0.049552 
3192.190480  	0.049658 
3194.119296  	0.049414 
3196.048112  	0.049340 
3197.976928  	0.049695 
3199.905744  	0.049760 
3201.834560  	0.049780 
3203.763376  	0.049954 
3205.692192  	0.049842 
3207.621008  	0.049530 
3209.549824  	0.049477 
3211.478640  	0.049433 
3213.407456  	0.049398 
3215.336272  	0.049530 
3217.265088  	0.049392 
3219.193904  	0.049141 
3221.122720  	0.048826 
3223.051536  	0.048806 
3224.980352  	0.048756 
3226.909168  	0.048464 
3228.837984  	0.048317 
3230.766800  	0.048366 
3232.695616  	0.048296 
3234.624432  	0.048203 
3236.553248  	0.048285 
3238.482064  	0.048243 
3240.410880  	0.048032 
3242.339696  	0.048015 
3244.268512  	0.047915 
3246.197328  	0.047754 
3248.126144  	0.047773 
3250.054960  	0.047985 
3251.983776  	0.048011 
3253.912592  	0.048073 
3255.841408  	0.048133 
3257.770224  	0.048165 
3259.699040  	0.048198 
3261.627856  	0.048238 
3263.556672  	0.048304 
3265.485488  	0.048295 
3267.414304  	0.048365 
3269.343120  	0.048445 
3271.271936  	0.048629 
3273.200752  	0.048927 
3275.129568  	0.049048 
3277.058384  	0.049065 
3278.987200  	0.049152 
3280.916016  	0.049276 
3282.844832  	0.049433 
3284.773648  	0.049566 
3286.702464  	0.049599 
3288.631280  	0.049730 
3290.560096  	0.049801 
3292.488912  	0.049915 
3294.417728  	0.050034 
3296.346544  	0.050175 
3298.275360  	0.050306 
3300.204176  	0.050604 
3302.132992  	0.050834 
3304.061808  	0.051102 
3305.990624  	0.051408 
3307.919440  	0.051496 
3309.848256  	0.051496 
3311.777072  	0.051463 
3313.705888  	0.051762 
3315.634704  	0.052184 
3317.563520  	0.052389 
3319.492336  	0.052418 
3321.421152  	0.052615 
3323.349968  	0.052811 
3325.278784  	0.053006 
3327.207600  	0.053065 
3329.136416  	0.052996 
3331.065232  	0.052956 
3332.994048  	0.053093 
3334.922864  	0.053179 
3336.851680  	0.053068 
3338.780496  	0.053081 
3340.709312  	0.053084 
3342.638128  	0.053025 
3344.566944  	0.053012 
3346.495760  	0.052810 
3348.424576  	0.052645 
3350.353392  	0.052698 
3352.282208  	0.052614 
3354.211024  	0.052466 
3356.139840  	0.052448 
3358.068656  	0.052282 
3359.997472  	0.052028 
3361.926288  	0.051819 
3363.855104  	0.051524 
3365.783920  	0.051354 
3367.712736  	0.051213 
3369.641552  	0.050951 
3371.570368  	0.050642 
3373.499184  	0.050400 
3375.428000  	0.050223 
3377.356816  	0.050086 
3379.285632  	0.050056 
3381.214448  	0.049982 
3383.143264  	0.049762 
3385.072080  	0.049642 
3387.000896  	0.049242 
3388.929712  	0.048915 
3390.858528  	0.048721 
3392.787344  	0.048515 
3394.716160  	0.048217 
3396.644976  	0.048073 
3398.573792  	0.047868 
3400.502608  	0.047286 
3402.431424  	0.047040 
3404.360240  	0.046954 
3406.289056  	0.046738 
3408.217872  	0.046376 
3410.146688  	0.046066 
3412.075504  	0.046209 
3414.004320  	0.046223 
3415.933136  	0.045893 
3417.861952  	0.045349 
3419.790768  	0.045202 
3421.719584  	0.045043 
3423.648400  	0.044599 
3425.577216  	0.044530 
3427.506032  	0.044468 
3429.434848  	0.043910 
3431.363664  	0.043619 
3433.292480  	0.043548 
3435.221296  	0.043300 
3437.150112  	0.042881 
3439.078928  	0.042754 
3441.007744  	0.042715 
3442.936560  	0.042434 
3444.865376  	0.041851 
3446.794192  	0.041239 
3448.723008  	0.041179 
3450.651824  	0.040868 
3452.580640  	0.040407 
3454.509456  	0.040065 
3456.438272  	0.039731 
3458.367088  	0.039504 
3460.295904  	0.039371 
3462.224720  	0.039184 
3464.153536  	0.038769 
3466.082352  	0.038383 
3468.011168  	0.038215 
3469.939984  	0.037885 
3471.868800  	0.037528 
3473.797616  	0.037284 
3475.726432  	0.036866 
3477.655248  	0.036374 
3479.584064  	0.035947 
3481.512880  	0.035537 
3483.441696  	0.035042 
3485.370512  	0.034440 
3487.299328  	0.034145 
3489.228144  	0.033947 
3491.156960  	0.033374 
3493.085776  	0.033085 
3495.014592  	0.032855 
3496.943408  	0.032494 
3498.872224  	0.032087 
3500.801040  	0.031669 
3502.729856  	0.031233 
3504.658672  	0.030926 
3506.587488  	0.030404 
3508.516304  	0.030043 
3510.445120  	0.030027 
3512.373936  	0.029883 
3514.302752  	0.029707 
3516.231568  	0.029301 
3518.160384  	0.028989 
3520.089200  	0.028768 
3522.018016  	0.028345 
3523.946832  	0.027895 
3525.875648  	0.027514 
3527.804464  	0.027254 
3529.733280  	0.027313 
3531.662096  	0.027086 
3533.590912  	0.026677 
3535.519728  	0.026419 
3537.448544  	0.026482 
3539.377360  	0.026188 
3541.306176  	0.025525 
3543.234992  	0.024993 
3545.163808  	0.024803 
3547.092624  	0.024635 
3549.021440  	0.024207 
3550.950256  	0.023984 
3552.879072  	0.024093 
3554.807888  	0.023814 
3556.736704  	0.023375 
3558.665520  	0.023235 
3560.594336  	0.023030 
3562.523152  	0.022355 
3564.451968  	0.021655 
3566.380784  	0.021328 
3568.309600  	0.021689 
3570.238416  	0.021394 
3572.167232  	0.020963 
3574.096048  	0.020806 
3576.024864  	0.020481 
3577.953680  	0.019991 
3579.882496  	0.019697 
3581.811312  	0.019488 
3583.740128  	0.019052 
3585.668944  	0.018332 
3587.597760  	0.018431 
3589.526576  	0.018443 
3591.455392  	0.017552 
3593.384208  	0.017263 
3595.313024  	0.017009 
3597.241840  	0.016795 
3599.170656  	0.016379 
3601.099472  	0.016157 
3603.028288  	0.015843 
3604.957104  	0.015030 
3606.885920  	0.014414 
3608.814736  	0.014700 
3610.743552  	0.014053 
3612.672368  	0.013289 
3614.601184  	0.013157 
3616.530000  	0.012434 
3618.458816  	0.012233 
3620.387632  	0.012895 
3622.316448  	0.012546 
3624.245264  	0.011729 
3626.174080  	0.010481 
3628.102896  	0.010030 
3630.031712  	0.011638 
3631.960528  	0.011242 
3633.889344  	0.010702 
3635.818160  	0.010270 
3637.746976  	0.010288 
3639.675792  	0.010804 
3641.604608  	0.010773 
3643.533424  	0.009899 
3645.462240  	0.008406 
3647.391056  	0.007741 
3649.319872  	0.008814 
3651.248688  	0.010531 
3653.177504  	0.009795 
3655.106320  	0.009002 
3657.035136  	0.010125 
3658.963952  	0.010092 
3660.892768  	0.009484 
3662.821584  	0.009119 
3664.750400  	0.008671 
3666.679216  	0.007867 
3668.608032  	0.007035 
3670.536848  	0.008026 
3672.465664  	0.007724 
3674.394480  	0.006903 
3676.323296  	0.008853 
3678.252112  	0.008163 
3680.180928  	0.007476 
3682.109744  	0.007396 
3684.038560  	0.007310 
3685.967376  	0.006272 
3687.896192  	0.005662 
3689.825008  	0.006489 
3691.753824  	0.006834 
3693.682640  	0.006426 
3695.611456  	0.005876 
3697.540272  	0.005689 
3699.469088  	0.004977 
3701.397904  	0.005080 
3703.326720  	0.005322 
3705.255536  	0.004390 
3707.184352  	0.003513 
3709.113168  	0.003169 
3711.041984  	0.003629 
3712.970800  	0.004607 
3714.899616  	0.004255 
3716.828432  	0.003816 
3718.757248  	0.003503 
3720.686064  	0.003088 
3722.614880  	0.003220 
3724.543696  	0.003122 
3726.472512  	0.003485 
3728.401328  	0.003394 
3730.330144  	0.002112 
3732.258960  	0.001452 
3734.187776  	0.001748 
3736.116592  	0.003623 
3738.045408  	0.003648 
3739.974224  	0.002630 
3741.903040  	0.001486 
3743.831856  	0.002147 
3745.760672  	0.004037 
3747.689488  	0.002165 
3749.618304  	0.001753 
3751.547120  	0.003411 
3753.475936  	0.004591 
3755.404752  	0.003476 
3757.333568  	0.002852 
3759.262384  	0.003257 
3761.191200  	0.004024 
3763.120016  	0.003589 
3765.048832  	0.003525 
3766.977648  	0.003493 
3768.906464  	0.003409 
3770.835280  	0.004339 
3772.764096  	0.004271 
3774.692912  	0.003821 
3776.621728  	0.003324 
3778.550544  	0.003199 
3780.479360  	0.003791 
3782.408176  	0.003582 
3784.336992  	0.003566 
3786.265808  	0.003797 
3788.194624  	0.003824 
3790.123440  	0.003773 
3792.052256  	0.003723 
3793.981072  	0.003195 
3795.909888  	0.003208 
3797.838704  	0.003293 
3799.767520  	0.002337 
3801.696336  	0.003541 
3803.625152  	0.003732 
3805.553968  	0.002705 
3807.482784  	0.003802 
3809.411600  	0.004114 
3811.340416  	0.003799 
3813.269232  	0.003015 
3815.198048  	0.002611 
3817.126864  	0.003148 
3819.055680  	0.001962 
3820.984496  	0.002878 
3822.913312  	0.004240 
3824.842128  	0.003459 
3826.770944  	0.003416 
3828.699760  	0.003293 
3830.628576  	0.002911 
3832.557392  	0.003083 
3834.486208  	0.002558 
3836.415024  	0.002132 
3838.343840  	0.002993 
3840.272656  	0.003481 
3842.201472  	0.003288 
3844.130288  	0.003446 
3846.059104  	0.003558 
3847.987920  	0.003106 
3849.916736  	0.002160 
3851.845552  	0.001471 
3853.774368  	0.004293 
3855.703184  	0.004862 
3857.632000  	0.003705 
3859.560816  	0.002933 
3861.489632  	0.002520 
3863.418448  	0.002771 
3865.347264  	0.003546 
3867.276080  	0.002795 
3869.204896  	0.002751 
3871.133712  	0.003896 
3873.062528  	0.003166 
3874.991344  	0.003726 
3876.920160  	0.003356 
3878.848976  	0.002771 
3880.777792  	0.003561 
3882.706608  	0.003429 
3884.635424  	0.002968 
3886.564240  	0.004084 
3888.493056  	0.003376 
3890.421872  	0.003013 
3892.350688  	0.003864 
3894.279504  	0.003809 
3896.208320  	0.003229 
3898.137136  	0.002787 
3900.065952  	0.002748 
3901.994768  	0.002725 
3903.923584  	0.003376 
3905.852400  	0.004127 
3907.781216  	0.003888 
3909.710032  	0.003589 
3911.638848  	0.003586 
3913.567664  	0.003448 
3915.496480  	0.003306 
3917.425296  	0.003775 
3919.354112  	0.003709 
3921.282928  	0.003492 
3923.211744  	0.003316 
3925.140560  	0.003673 
3927.069376  	0.003581 
3928.998192  	0.003201 
3930.927008  	0.003466 
3932.855824  	0.003954 
3934.784640  	0.003903 
3936.713456  	0.003911 
3938.642272  	0.003782 
3940.571088  	0.003331 
3942.499904  	0.003628 
3944.428720  	0.004004 
3946.357536  	0.003740 
3948.286352  	0.003664 
3950.215168  	0.003666 
3952.143984  	0.003619 
3954.072800  	0.003541 
3956.001616  	0.003600 
3957.930432  	0.003805 
3959.859248  	0.003961 
3961.788064  	0.003927 
3963.716880  	0.003955 
3965.645696  	0.003914 
3967.574512  	0.003898 
3969.503328  	0.003803 
3971.432144  	0.003721 
3973.360960  	0.003828 
3975.289776  	0.004031 
3977.218592  	0.003932 
3979.147408  	0.003907 
3981.076224  	0.003821 
3983.005040  	0.003824 
3984.933856  	0.003818 
3986.862672  	0.003840 
3988.791488  	0.003739 
3990.720304  	0.003730 
3992.649120  	0.003791 
3994.577936  	0.003845 
3996.506752  	0.003801 
3998.435568  	0.003756 
4000.364384  	0.003793 