##TITLE=No Description
##DATA TYPE=INFRARED SPECTRUM
##XUNITS=1/CM
##YUNITS=Abs
399.264912  	0.668980 
401.193728  	0.643329 
403.122544  	0.639907 
405.051360  	0.637053 
406.980176  	0.627490 
408.908992  	0.617716 
410.837808  	0.623028 
412.766624  	0.614408 
414.695440  	0.611251 
416.624256  	0.610719 
418.553072  	0.607561 
420.481888  	0.598234 
422.410704  	0.606012 
424.339520  	0.588213 
426.268336  	0.581569 
428.197152  	0.583532 
430.125968  	0.583933 
432.054784  	0.573633 
433.983600  	0.567831 
435.912416  	0.555398 
437.841232  	0.559362 
439.770048  	0.560035 
441.698864  	0.559760 
443.627680  	0.551701 
445.556496  	0.548840 
447.485312  	0.545073 
449.414128  	0.548745 
451.342944  	0.544786 
453.271760  	0.543952 
455.200576  	0.541242 
457.129392  	0.540253 
459.058208  	0.536287 
460.987024  	0.539793 
462.915840  	0.538826 
464.844656  	0.540916 
466.773472  	0.536387 
468.702288  	0.537735 
470.631104  	0.535772 
472.559920  	0.532232 
474.488736  	0.525443 
476.417552  	0.529614 
478.346368  	0.531035 
480.275184  	0.530838 
482.204000  	0.529698 
484.132816  	0.530749 
486.061632  	0.528064 
487.990448  	0.531542 
489.919264  	0.528589 
491.848080  	0.525197 
493.776896  	0.518182 
495.705712  	0.517963 
497.634528  	0.515654 
499.563344  	0.517463 
501.492160  	0.516277 
503.420976  	0.516592 
505.349792  	0.512910 
507.278608  	0.510625 
509.207424  	0.508822 
511.136240  	0.508607 
513.065056  	0.507886 
514.993872  	0.512226 
516.922688  	0.513130 
518.851504  	0.511775 
520.780320  	0.509337 
522.709136  	0.510818 
524.637952  	0.506363 
526.566768  	0.503569 
528.495584  	0.502175 
530.424400  	0.501801 
532.353216  	0.498851 
534.282032  	0.495290 
536.210848  	0.491928 
538.139664  	0.488187 
540.068480  	0.483917 
541.997296  	0.483159 
543.926112  	0.479011 
545.854928  	0.477281 
547.783744  	0.474354 
549.712560  	0.471547 
551.641376  	0.467721 
553.570192  	0.465523 
555.499008  	0.460840 
557.427824  	0.458196 
559.356640  	0.456288 
561.285456  	0.454324 
563.214272  	0.449736 
565.143088  	0.446856 
567.071904  	0.443605 
569.000720  	0.440548 
570.929536  	0.436472 
572.858352  	0.434819 
574.787168  	0.432508 
576.715984  	0.430426 
578.644800  	0.427441 
580.573616  	0.423956 
582.502432  	0.420290 
584.431248  	0.418207 
586.360064  	0.415831 
588.288880  	0.414087 
590.217696  	0.411872 
592.146512  	0.410474 
594.075328  	0.407236 
596.004144  	0.404371 
597.932960  	0.402183 
599.861776  	0.400826 
601.790592  	0.399133 
603.719408  	0.397808 
605.648224  	0.395789 
607.577040  	0.394720 
609.505856  	0.393027 
611.434672  	0.392213 
613.363488  	0.389680 
615.292304  	0.387208 
617.221120  	0.384990 
619.149936  	0.383458 
621.078752  	0.380900 
623.007568  	0.379829 
624.936384  	0.378354 
626.865200  	0.377213 
628.794016  	0.375355 
630.722832  	0.373567 
632.651648  	0.371698 
634.580464  	0.370069 
636.509280  	0.369291 
638.438096  	0.368820 
640.366912  	0.367089 
642.295728  	0.365450 
644.224544  	0.362777 
646.153360  	0.360407 
648.082176  	0.357471 
650.010992  	0.354794 
651.939808  	0.351081 
653.868624  	0.347835 
655.797440  	0.344489 
657.726256  	0.341857 
659.655072  	0.338305 
661.583888  	0.335083 
663.512704  	0.331892 
665.441520  	0.329279 
667.370336  	0.324553 
669.299152  	0.319099 
671.227968  	0.318466 
673.156784  	0.317090 
675.085600  	0.314582 
677.014416  	0.312354 
678.943232  	0.310756 
680.872048  	0.309018 
682.800864  	0.306510 
684.729680  	0.304542 
686.658496  	0.302355 
688.587312  	0.300281 
690.516128  	0.297701 
692.444944  	0.295827 
694.373760  	0.294010 
696.302576  	0.291999 
698.231392  	0.289795 
700.160208  	0.287477 
702.089024  	0.284559 
704.017840  	0.282476 
705.946656  	0.280181 
707.875472  	0.277869 
709.804288  	0.275652 
711.733104  	0.273948 
713.661920  	0.271756 
715.590736  	0.270191 
717.519552  	0.268720 
719.448368  	0.267889 
721.377184  	0.267633 
723.306000  	0.267580 
725.234816  	0.266744 
727.163632  	0.265143 
729.092448  	0.262662 
731.021264  	0.260204 
732.950080  	0.257622 
734.878896  	0.255010 
736.807712  	0.252549 
738.736528  	0.250755 
740.665344  	0.248950 
742.594160  	0.247299 
744.522976  	0.245578 
746.451792  	0.244031 
748.380608  	0.242562 
750.309424  	0.241222 
752.238240  	0.239849 
754.167056  	0.238661 
756.095872  	0.237165 
758.024688  	0.235813 
759.953504  	0.234761 
761.882320  	0.233976 
763.811136  	0.232896 
765.739952  	0.231588 
767.668768  	0.229810 
769.597584  	0.228303 
771.526400  	0.227318 
773.455216  	0.227214 
775.384032  	0.227541 
777.312848  	0.228660 
779.241664  	0.229971 
781.170480  	0.229541 
783.099296  	0.226945 
785.028112  	0.223149 
786.956928  	0.218687 
788.885744  	0.214751 
790.814560  	0.211444 
792.743376  	0.209082 
794.672192  	0.207057 
796.601008  	0.205690 
798.529824  	0.203553 
800.458640  	0.200433 
802.387456  	0.197182 
804.316272  	0.195131 
806.245088  	0.193758 
808.173904  	0.192703 
810.102720  	0.191830 
812.031536  	0.190950 
813.960352  	0.189793 
815.889168  	0.188585 
817.817984  	0.187495 
819.746800  	0.186766 
821.675616  	0.185616 
823.604432  	0.184381 
825.533248  	0.182555 
827.462064  	0.180643 
829.390880  	0.179217 
831.319696  	0.177743 
833.248512  	0.176126 
835.177328  	0.174251 
837.106144  	0.172057 
839.034960  	0.169436 
840.963776  	0.166931 
842.892592  	0.164897 
844.821408  	0.162563 
846.750224  	0.160499 
848.679040  	0.158739 
850.607856  	0.156972 
852.536672  	0.155496 
854.465488  	0.153945 
856.394304  	0.152419 
858.323120  	0.151386 
860.251936  	0.150225 
862.180752  	0.148801 
864.109568  	0.147356 
866.038384  	0.145995 
867.967200  	0.144521 
869.896016  	0.143081 
871.824832  	0.141577 
873.753648  	0.140374 
875.682464  	0.139649 
877.611280  	0.139544 
879.540096  	0.139816 
881.468912  	0.139728 
883.397728  	0.139428 
885.326544  	0.138732 
887.255360  	0.137831 
889.184176  	0.137196 
891.112992  	0.136468 
893.041808  	0.135004 
894.970624  	0.133074 
896.899440  	0.130979 
898.828256  	0.128188 
900.757072  	0.125518 
902.685888  	0.123248 
904.614704  	0.121727 
906.543520  	0.120859 
908.472336  	0.120796 
910.401152  	0.121310 
912.329968  	0.122117 
914.258784  	0.123079 
916.187600  	0.124170 
918.116416  	0.124699 
920.045232  	0.124538 
921.974048  	0.123757 
923.902864  	0.122714 
925.831680  	0.121605 
927.760496  	0.120435 
929.689312  	0.119321 
931.618128  	0.118658 
933.546944  	0.118288 
935.475760  	0.117683 
937.404576  	0.117061 
939.333392  	0.116892 
941.262208  	0.117145 
943.191024  	0.117947 
945.119840  	0.119611 
947.048656  	0.121795 
948.977472  	0.124703 
950.906288  	0.128289 
952.835104  	0.131999 
954.763920  	0.135743 
956.692736  	0.139274 
958.621552  	0.142143 
960.550368  	0.143795 
962.479184  	0.144252 
964.408000  	0.142959 
966.336816  	0.140120 
968.265632  	0.135752 
970.194448  	0.130365 
972.123264  	0.124275 
974.052080  	0.117727 
975.980896  	0.111431 
977.909712  	0.105316 
979.838528  	0.099993 
981.767344  	0.095759 
983.696160  	0.092552 
985.624976  	0.090566 
987.553792  	0.090251 
989.482608  	0.091077 
991.411424  	0.092735 
993.340240  	0.095416 
995.269056  	0.099261 
997.197872  	0.103330 
999.126688  	0.107282 
1001.055504  	0.111457 
1002.984320  	0.115639 
1004.913136  	0.119736 
1006.841952  	0.123518 
1008.770768  	0.126942 
1010.699584  	0.129822 
1012.628400  	0.132020 
1014.557216  	0.133448 
1016.486032  	0.134504 
1018.414848  	0.135194 
1020.343664  	0.135799 
1022.272480  	0.136300 
1024.201296  	0.136830 
1026.130112  	0.138091 
1028.058928  	0.138962 
1029.987744  	0.138435 
1031.916560  	0.139545 
1033.845376  	0.142110 
1035.774192  	0.145264 
1037.703008  	0.148528 
1039.631824  	0.152234 
1041.560640  	0.156794 
1043.489456  	0.162852 
1045.418272  	0.170130 
1047.347088  	0.178502 
1049.275904  	0.187308 
1051.204720  	0.196397 
1053.133536  	0.204419 
1055.062352  	0.211237 
1056.991168  	0.216375 
1058.919984  	0.219248 
1060.848800  	0.220185 
1062.777616  	0.221703 
1064.706432  	0.223037 
1066.635248  	0.222258 
1068.564064  	0.218338 
1070.492880  	0.215246 
1072.421696  	0.212576 
1074.350512  	0.210068 
1076.279328  	0.207452 
1078.208144  	0.205207 
1080.136960  	0.203230 
1082.065776  	0.201410 
1083.994592  	0.199389 
1085.923408  	0.197420 
1087.852224  	0.194568 
1089.781040  	0.191402 
1091.709856  	0.186978 
1093.638672  	0.182244 
1095.567488  	0.176785 
1097.496304  	0.171073 
1099.425120  	0.164878 
1101.353936  	0.158280 
1103.282752  	0.151135 
1105.211568  	0.143582 
1107.140384  	0.136032 
1109.069200  	0.128602 
1110.998016  	0.121470 
1112.926832  	0.114788 
1114.855648  	0.108051 
1116.784464  	0.101423 
1118.713280  	0.095603 
1120.642096  	0.090439 
1122.570912  	0.085626 
1124.499728  	0.081189 
1126.428544  	0.076794 
1128.357360  	0.072607 
1130.286176  	0.069010 
1132.214992  	0.066227 
1134.143808  	0.063620 
1136.072624  	0.061022 
1138.001440  	0.058594 
1139.930256  	0.056344 
1141.859072  	0.054337 
1143.787888  	0.052286 
1145.716704  	0.050541 
1147.645520  	0.049174 
1149.574336  	0.047996 
1151.503152  	0.047128 
1153.431968  	0.046717 
1155.360784  	0.046391 
1157.289600  	0.046327 
1159.218416  	0.046719 
1161.147232  	0.047453 
1163.076048  	0.048074 
1165.004864  	0.049006 
1166.933680  	0.049903 
1168.862496  	0.050937 
1170.791312  	0.052330 
1172.720128  	0.053563 
1174.648944  	0.054770 
1176.577760  	0.056298 
1178.506576  	0.057590 
1180.435392  	0.058818 
1182.364208  	0.060176 
1184.293024  	0.061612 
1186.221840  	0.063181 
1188.150656  	0.064896 
1190.079472  	0.066909 
1192.008288  	0.069344 
1193.937104  	0.072319 
1195.865920  	0.075757 
1197.794736  	0.079317 
1199.723552  	0.083257 
1201.652368  	0.087571 
1203.581184  	0.092123 
1205.510000  	0.096594 
1207.438816  	0.101238 
1209.367632  	0.105922 
1211.296448  	0.110411 
1213.225264  	0.114626 
1215.154080  	0.118397 
1217.082896  	0.121811 
1219.011712  	0.124656 
1220.940528  	0.127485 
1222.869344  	0.129858 
1224.798160  	0.131819 
1226.726976  	0.133443 
1228.655792  	0.134780 
1230.584608  	0.135516 
1232.513424  	0.135698 
1234.442240  	0.134855 
1236.371056  	0.133513 
1238.299872  	0.131781 
1240.228688  	0.130031 
1242.157504  	0.126961 
1244.086320  	0.122727 
1246.015136  	0.118681 
1247.943952  	0.114730 
1249.872768  	0.110361 
1251.801584  	0.105493 
1253.730400  	0.100527 
1255.659216  	0.095755 
1257.588032  	0.091085 
1259.516848  	0.086570 
1261.445664  	0.082307 
1263.374480  	0.078351 
1265.303296  	0.074554 
1267.232112  	0.071194 
1269.160928  	0.068564 
1271.089744  	0.066558 
1273.018560  	0.065272 
1274.947376  	0.064509 
1276.876192  	0.063748 
1278.805008  	0.062878 
1280.733824  	0.061640 
1282.662640  	0.059591 
1284.591456  	0.056986 
1286.520272  	0.054417 
1288.449088  	0.052359 
1290.377904  	0.050749 
1292.306720  	0.049480 
1294.235536  	0.048041 
1296.164352  	0.045998 
1298.093168  	0.043671 
1300.021984  	0.041327 
1301.950800  	0.038968 
1303.879616  	0.037048 
1305.808432  	0.035354 
1307.737248  	0.033819 
1309.666064  	0.032557 
1311.594880  	0.031727 
1313.523696  	0.030999 
1315.452512  	0.030619 
1317.381328  	0.030599 
1319.310144  	0.030859 
1321.238960  	0.031397 
1323.167776  	0.032026 
1325.096592  	0.032466 
1327.025408  	0.032667 
1328.954224  	0.032479 
1330.883040  	0.032085 
1332.811856  	0.031463 
1334.740672  	0.030861 
1336.669488  	0.030072 
1338.598304  	0.029432 
1340.527120  	0.029103 
1342.455936  	0.029209 
1344.384752  	0.029281 
1346.313568  	0.029615 
1348.242384  	0.030304 
1350.171200  	0.031396 
1352.100016  	0.032715 
1354.028832  	0.034075 
1355.957648  	0.035576 
1357.886464  	0.037176 
1359.815280  	0.038326 
1361.744096  	0.039160 
1363.672912  	0.040600 
1365.601728  	0.042165 
1367.530544  	0.042936 
1369.459360  	0.043461 
1371.388176  	0.043583 
1373.316992  	0.043002 
1375.245808  	0.042341 
1377.174624  	0.041833 
1379.103440  	0.040840 
1381.032256  	0.039832 
1382.961072  	0.038801 
1384.889888  	0.037734 
1386.818704  	0.036095 
1388.747520  	0.035100 
1390.676336  	0.034966 
1392.605152  	0.035312 
1394.533968  	0.034648 
1396.462784  	0.033276 
1398.391600  	0.033111 
1400.320416  	0.034311 
1402.249232  	0.035570 
1404.178048  	0.036432 
1406.106864  	0.037495 
1408.035680  	0.038686 
1409.964496  	0.039542 
1411.893312  	0.040327 
1413.822128  	0.040876 
1415.750944  	0.041020 
1417.679760  	0.040277 
1419.608576  	0.039728 
1421.537392  	0.039905 
1423.466208  	0.039122 
1425.395024  	0.038029 
1427.323840  	0.036979 
1429.252656  	0.035412 
1431.181472  	0.034426 
1433.110288  	0.034193 
1435.039104  	0.033929 
1436.967920  	0.033812 
1438.896736  	0.034784 
1440.825552  	0.035334 
1442.754368  	0.035737 
1444.683184  	0.035755 
1446.612000  	0.035542 
1448.540816  	0.035780 
1450.469632  	0.036377 
1452.398448  	0.036401 
1454.327264  	0.036002 
1456.256080  	0.034494 
1458.184896  	0.034353 
1460.113712  	0.035776 
1462.042528  	0.036571 
1463.971344  	0.036409 
1465.900160  	0.037506 
1467.828976  	0.039316 
1469.757792  	0.040847 
1471.686608  	0.041956 
1473.615424  	0.044967 
1475.544240  	0.047824 
1477.473056  	0.050386 
1479.401872  	0.051793 
1481.330688  	0.052343 
1483.259504  	0.052665 
1485.188320  	0.052154 
1487.117136  	0.050532 
1489.045952  	0.048722 
1490.974768  	0.047003 
1492.903584  	0.045802 
1494.832400  	0.043438 
1496.761216  	0.040245 
1498.690032  	0.037712 
1500.618848  	0.036125 
1502.547664  	0.034601 
1504.476480  	0.032331 
1506.405296  	0.028398 
1508.334112  	0.027553 
1510.262928  	0.028197 
1512.191744  	0.027981 
1514.120560  	0.027207 
1516.049376  	0.026294 
1517.978192  	0.026560 
1519.907008  	0.027007 
1521.835824  	0.027768 
1523.764640  	0.030246 
1525.693456  	0.032059 
1527.622272  	0.033692 
1529.551088  	0.034933 
1531.479904  	0.034997 
1533.408720  	0.033836 
1535.337536  	0.033518 
1537.266352  	0.032151 
1539.195168  	0.028380 
1541.123984  	0.026065 
1543.052800  	0.026390 
1544.981616  	0.026140 
1546.910432  	0.026324 
1548.839248  	0.025761 
1550.768064  	0.025650 
1552.696880  	0.025839 
1554.625696  	0.025878 
1556.554512  	0.025403 
1558.483328  	0.023916 
1560.412144  	0.027773 
1562.340960  	0.031299 
1564.269776  	0.032924 
1566.198592  	0.035454 
1568.127408  	0.037294 
1570.056224  	0.040368 
1571.985040  	0.043797 
1573.913856  	0.045345 
1575.842672  	0.045825 
1577.771488  	0.047674 
1579.700304  	0.048304 
1581.629120  	0.048370 
1583.557936  	0.048581 
1585.486752  	0.049527 
1587.415568  	0.051067 
1589.344384  	0.053568 
1591.273200  	0.056507 
1593.202016  	0.060149 
1595.130832  	0.063714 
1597.059648  	0.067429 
1598.988464  	0.070419 
1600.917280  	0.072684 
1602.846096  	0.073970 
1604.774912  	0.074887 
1606.703728  	0.074727 
1608.632544  	0.074300 
1610.561360  	0.073700 
1612.490176  	0.073497 
1614.418992  	0.072817 
1616.347808  	0.072782 
1618.276624  	0.074818 
1620.205440  	0.077354 
1622.134256  	0.079231 
1624.063072  	0.083603 
1625.991888  	0.088046 
1627.920704  	0.092875 
1629.849520  	0.098518 
1631.778336  	0.103513 
1633.707152  	0.106846 
1635.635968  	0.111636 
1637.564784  	0.118282 
1639.493600  	0.122892 
1641.422416  	0.126299 
1643.351232  	0.128710 
1645.280048  	0.129391 
1647.208864  	0.130924 
1649.137680  	0.132660 
1651.066496  	0.132034 
1652.995312  	0.129173 
1654.924128  	0.131200 
1656.852944  	0.131505 
1658.781760  	0.130874 
1660.710576  	0.129526 
1662.639392  	0.128122 
1664.568208  	0.127426 
1666.497024  	0.126476 
1668.425840  	0.124181 
1670.354656  	0.122866 
1672.283472  	0.122706 
1674.212288  	0.122104 
1676.141104  	0.122029 
1678.069920  	0.122740 
1679.998736  	0.122729 
1681.927552  	0.122381 
1683.856368  	0.121393 
1685.785184  	0.123786 
1687.714000  	0.124195 
1689.642816  	0.123837 
1691.571632  	0.123468 
1693.500448  	0.122050 
1695.429264  	0.118654 
1697.358080  	0.116453 
1699.286896  	0.113812 
1701.215712  	0.110558 
1703.144528  	0.108667 
1705.073344  	0.104989 
1707.002160  	0.101317 
1708.930976  	0.098247 
1710.859792  	0.094206 
1712.788608  	0.089413 
1714.717424  	0.083820 
1716.646240  	0.077492 
1718.575056  	0.071397 
1720.503872  	0.067283 
1722.432688  	0.062778 
1724.361504  	0.057348 
1726.290320  	0.052684 
1728.219136  	0.047857 
1730.147952  	0.043087 
1732.076768  	0.038772 
1734.005584  	0.033857 
1735.934400  	0.030577 
1737.863216  	0.028627 
1739.792032  	0.025038 
1741.720848  	0.022810 
1743.649664  	0.020581 
1745.578480  	0.018716 
1747.507296  	0.016593 
1749.436112  	0.015048 
1751.364928  	0.014143 
1753.293744  	0.014279 
1755.222560  	0.013512 
1757.151376  	0.012477 
1759.080192  	0.011823 
1761.009008  	0.011326 
1762.937824  	0.010892 
1764.866640  	0.011038 
1766.795456  	0.010319 
1768.724272  	0.009835 
1770.653088  	0.008865 
1772.581904  	0.008264 
1774.510720  	0.008741 
1776.439536  	0.009158 
1778.368352  	0.009051 
1780.297168  	0.008834 
1782.225984  	0.008592 
1784.154800  	0.008529 
1786.083616  	0.008577 
1788.012432  	0.008754 
1789.941248  	0.007982 
1791.870064  	0.007313 
1793.798880  	0.007519 
1795.727696  	0.008068 
1797.656512  	0.007771 
1799.585328  	0.007321 
1801.514144  	0.007047 
1803.442960  	0.007265 
1805.371776  	0.007207 
1807.300592  	0.007125 
1809.229408  	0.006729 
1811.158224  	0.006660 
1813.087040  	0.006771 
1815.015856  	0.006818 
1816.944672  	0.006529 
1818.873488  	0.006840 
1820.802304  	0.006918 
1822.731120  	0.006817 
1824.659936  	0.006156 
1826.588752  	0.006400 
1828.517568  	0.006143 
1830.446384  	0.006147 
1832.375200  	0.006661 
1834.304016  	0.006712 
1836.232832  	0.006592 
1838.161648  	0.006893 
1840.090464  	0.006768 
1842.019280  	0.006169 
1843.948096  	0.005238 
1845.876912  	0.005723 
1847.805728  	0.006225 
1849.734544  	0.006638 
1851.663360  	0.006664 
1853.592176  	0.006735 
1855.520992  	0.006668 
1857.449808  	0.006889 
1859.378624  	0.006761 
1861.307440  	0.006655 
1863.236256  	0.006385 
1865.165072  	0.006311 
1867.093888  	0.005992 
1869.022704  	0.005933 
1870.951520  	0.005986 
1872.880336  	0.006427 
1874.809152  	0.006353 
1876.737968  	0.006398 
1878.666784  	0.006078 
1880.595600  	0.006136 
1882.524416  	0.006285 
1884.453232  	0.006279 
1886.382048  	0.006130 
1888.310864  	0.005982 
1890.239680  	0.006004 
1892.168496  	0.006450 
1894.097312  	0.005789 
1896.026128  	0.005781 
1897.954944  	0.005800 
1899.883760  	0.005855 
1901.812576  	0.005974 
1903.741392  	0.006192 
1905.670208  	0.006154 
1907.599024  	0.006174 
1909.527840  	0.005990 
1911.456656  	0.006245 
1913.385472  	0.006383 
1915.314288  	0.006826 
1917.243104  	0.006357 
1919.171920  	0.006030 
1921.100736  	0.006041 
1923.029552  	0.006344 
1924.958368  	0.005979 
1926.887184  	0.006131 
1928.816000  	0.005832 
1930.744816  	0.005568 
1932.673632  	0.005408 
1934.602448  	0.005784 
1936.531264  	0.006112 
1938.460080  	0.006264 
1940.388896  	0.005907 
1942.317712  	0.005517 
1944.246528  	0.005658 
1946.175344  	0.006801 
1948.104160  	0.006125 
1950.032976  	0.005539 
1951.961792  	0.005718 
1953.890608  	0.006208 
1955.819424  	0.005831 
1957.748240  	0.006485 
1959.677056  	0.006453 
1961.605872  	0.005943 
1963.534688  	0.004962 
1965.463504  	0.005576 
1967.392320  	0.005144 
1969.321136  	0.005122 
1971.249952  	0.005949 
1973.178768  	0.007401 
1975.107584  	0.005319 
1977.036400  	0.004024 
1978.965216  	0.006795 
1980.894032  	0.007858 
1982.822848  	0.006016 
1984.751664  	0.005887 
1986.680480  	0.006366 
1988.609296  	0.006591 
1990.538112  	0.006166 
1992.466928  	0.006616 
1994.395744  	0.006821 
1996.324560  	0.006537 
1998.253376  	0.005831 
2000.182192  	0.006074 
2002.111008  	0.005798 
2004.039824  	0.005686 
2005.968640  	0.005720 
2007.897456  	0.006864 
2009.826272  	0.006326 
2011.755088  	0.005333 
2013.683904  	0.006219 
2015.612720  	0.007194 
2017.541536  	0.006544 
2019.470352  	0.006511 
2021.399168  	0.006672 
2023.327984  	0.007472 
2025.256800  	0.006390 
2027.185616  	0.005414 
2029.114432  	0.005461 
2031.043248  	0.007018 
2032.972064  	0.007461 
2034.900880  	0.007648 
2036.829696  	0.006780 
2038.758512  	0.006228 
2040.687328  	0.006346 
2042.616144  	0.006512 
2044.544960  	0.006371 
2046.473776  	0.006708 
2048.402592  	0.006758 
2050.331408  	0.007790 
2052.260224  	0.007281 
2054.189040  	0.007048 
2056.117856  	0.006826 
2058.046672  	0.007035 
2059.975488  	0.006909 
2061.904304  	0.006583 
2063.833120  	0.007100 
2065.761936  	0.007567 
2067.690752  	0.007275 
2069.619568  	0.007131 
2071.548384  	0.006090 
2073.477200  	0.006178 
2075.406016  	0.007031 
2077.334832  	0.007367 
2079.263648  	0.006605 
2081.192464  	0.006717 
2083.121280  	0.007377 
2085.050096  	0.007225 
2086.978912  	0.006660 
2088.907728  	0.006953 
2090.836544  	0.006663 
2092.765360  	0.006666 
2094.694176  	0.006673 
2096.622992  	0.006251 
2098.551808  	0.006094 
2100.480624  	0.006573 
2102.409440  	0.006688 
2104.338256  	0.007256 
2106.267072  	0.007239 
2108.195888  	0.006991 
2110.124704  	0.007433 
2112.053520  	0.007807 
2113.982336  	0.007518 
2115.911152  	0.007618 
2117.839968  	0.006898 
2119.768784  	0.006197 
2121.697600  	0.006160 
2123.626416  	0.006136 
2125.555232  	0.005776 
2127.484048  	0.006256 
2129.412864  	0.006165 
2131.341680  	0.005246 
2133.270496  	0.005541 
2135.199312  	0.006325 
2137.128128  	0.006183 
2139.056944  	0.006227 
2140.985760  	0.005482 
2142.914576  	0.006556 
2144.843392  	0.006432 
2146.772208  	0.006356 
2148.701024  	0.006572 
2150.629840  	0.006147 
2152.558656  	0.005149 
2154.487472  	0.005415 
2156.416288  	0.005273 
2158.345104  	0.006846 
2160.273920  	0.008798 
2162.202736  	0.009135 
2164.131552  	0.008418 
2166.060368  	0.009589 
2167.989184  	0.009081 
2169.918000  	0.008082 
2171.846816  	0.007135 
2173.775632  	0.007251 
2175.704448  	0.008525 
2177.633264  	0.009130 
2179.562080  	0.007918 
2181.490896  	0.007100 
2183.419712  	0.006958 
2185.348528  	0.008025 
2187.277344  	0.008188 
2189.206160  	0.008049 
2191.134976  	0.008702 
2193.063792  	0.009746 
2194.992608  	0.009877 
2196.921424  	0.008662 
2198.850240  	0.008336 
2200.779056  	0.008398 
2202.707872  	0.008180 
2204.636688  	0.008249 
2206.565504  	0.008532 
2208.494320  	0.008917 
2210.423136  	0.007725 
2212.351952  	0.007675 
2214.280768  	0.007794 
2216.209584  	0.007585 
2218.138400  	0.007754 
2220.067216  	0.007740 
2221.996032  	0.007520 
2223.924848  	0.006925 
2225.853664  	0.007156 
2227.782480  	0.007982 
2229.711296  	0.007843 
2231.640112  	0.007604 
2233.568928  	0.007455 
2235.497744  	0.007779 
2237.426560  	0.007578 
2239.355376  	0.007618 
2241.284192  	0.007557 
2243.213008  	0.007472 
2245.141824  	0.007553 
2247.070640  	0.007238 
2248.999456  	0.007043 
2250.928272  	0.007313 
2252.857088  	0.007184 
2254.785904  	0.007042 
2256.714720  	0.007451 
2258.643536  	0.007796 
2260.572352  	0.007490 
2262.501168  	0.007651 
2264.429984  	0.007768 
2266.358800  	0.008068 
2268.287616  	0.008264 
2270.216432  	0.007974 
2272.145248  	0.007376 
2274.074064  	0.007666 
2276.002880  	0.007684 
2277.931696  	0.007989 
2279.860512  	0.008437 
2281.789328  	0.008675 
2283.718144  	0.008594 
2285.646960  	0.008658 
2287.575776  	0.008494 
2289.504592  	0.007989 
2291.433408  	0.007661 
2293.362224  	0.007700 
2295.291040  	0.007846 
2297.219856  	0.007943 
2299.148672  	0.007629 
2301.077488  	0.007575 
2303.006304  	0.007684 
2304.935120  	0.007248 
2306.863936  	0.006596 
2308.792752  	0.006507 
2310.721568  	0.006687 
2312.650384  	0.006602 
2314.579200  	0.006564 
2316.508016  	0.006576 
2318.436832  	0.005988 
2320.365648  	0.005789 
2322.294464  	0.005553 
2324.223280  	0.004917 
2326.152096  	0.003755 
2328.080912  	0.002937 
2330.009728  	0.002464 
2331.938544  	0.002342 
2333.867360  	0.001846 
2335.796176  	0.001334 
2337.724992  	0.001318 
2339.653808  	0.001135 
2341.582624  	0.000893 
2343.511440  	0.001641 
2345.440256  	0.002363 
2347.369072  	0.003585 
2349.297888  	0.004100 
2351.226704  	0.003086 
2353.155520  	0.001674 
2355.084336  	0.000266 
2357.013152  	-0.000785 
2358.941968  	-0.000938 
2360.870784  	-0.001016 
2362.799600  	-0.000927 
2364.728416  	-0.000330 
2366.657232  	0.000171 
2368.586048  	0.000515 
2370.514864  	0.001827 
2372.443680  	0.002883 
2374.372496  	0.003986 
2376.301312  	0.005086 
2378.230128  	0.005951 
2380.158944  	0.006390 
2382.087760  	0.006843 
2384.016576  	0.007298 
2385.945392  	0.007619 
2387.874208  	0.007612 
2389.803024  	0.007682 
2391.731840  	0.007681 
2393.660656  	0.007711 
2395.589472  	0.007718 
2397.518288  	0.007870 
2399.447104  	0.007722 
2401.375920  	0.007443 
2403.304736  	0.007612 
2405.233552  	0.007792 
2407.162368  	0.007837 
2409.091184  	0.007775 
2411.020000  	0.007874 
2412.948816  	0.008091 
2414.877632  	0.007913 
2416.806448  	0.007950 
2418.735264  	0.008141 
2420.664080  	0.008074 
2422.592896  	0.007995 
2424.521712  	0.008019 
2426.450528  	0.008058 
2428.379344  	0.008092 
2430.308160  	0.008089 
2432.236976  	0.008141 
2434.165792  	0.008236 
2436.094608  	0.008704 
2438.023424  	0.009021 
2439.952240  	0.009022 
2441.881056  	0.008860 
2443.809872  	0.008651 
2445.738688  	0.008602 
2447.667504  	0.008713 
2449.596320  	0.008767 
2451.525136  	0.008734 
2453.453952  	0.008832 
2455.382768  	0.009259 
2457.311584  	0.009502 
2459.240400  	0.009286 
2461.169216  	0.008923 
2463.098032  	0.008815 
2465.026848  	0.008861 
2466.955664  	0.008951 
2468.884480  	0.008861 
2470.813296  	0.008931 
2472.742112  	0.008943 
2474.670928  	0.008927 
2476.599744  	0.008942 
2478.528560  	0.008999 
2480.457376  	0.009080 
2482.386192  	0.009014 
2484.315008  	0.009062 
2486.243824  	0.009226 
2488.172640  	0.009032 
2490.101456  	0.009110 
2492.030272  	0.009485 
2493.959088  	0.009409 
2495.887904  	0.009046 
2497.816720  	0.009116 
2499.745536  	0.009425 
2501.674352  	0.009682 
2503.603168  	0.009600 
2505.531984  	0.009429 
2507.460800  	0.009436 
2509.389616  	0.009465 
2511.318432  	0.009294 
2513.247248  	0.009353 
2515.176064  	0.009464 
2517.104880  	0.009904 
2519.033696  	0.010015 
2520.962512  	0.009848 
2522.891328  	0.009941 
2524.820144  	0.010016 
2526.748960  	0.009946 
2528.677776  	0.010103 
2530.606592  	0.010220 
2532.535408  	0.010179 
2534.464224  	0.010187 
2536.393040  	0.010172 
2538.321856  	0.009964 
2540.250672  	0.010104 
2542.179488  	0.010251 
2544.108304  	0.010343 
2546.037120  	0.010297 
2547.965936  	0.010559 
2549.894752  	0.010795 
2551.823568  	0.010779 
2553.752384  	0.010846 
2555.681200  	0.010965 
2557.610016  	0.010894 
2559.538832  	0.010859 
2561.467648  	0.010789 
2563.396464  	0.010935 
2565.325280  	0.011300 
2567.254096  	0.011303 
2569.182912  	0.011218 
2571.111728  	0.011164 
2573.040544  	0.011093 
2574.969360  	0.011169 
2576.898176  	0.011294 
2578.826992  	0.011539 
2580.755808  	0.011523 
2582.684624  	0.011353 
2584.613440  	0.011219 
2586.542256  	0.011452 
2588.471072  	0.011703 
2590.399888  	0.011725 
2592.328704  	0.011774 
2594.257520  	0.011899 
2596.186336  	0.012139 
2598.115152  	0.012225 
2600.043968  	0.012092 
2601.972784  	0.012101 
2603.901600  	0.012305 
2605.830416  	0.012467 
2607.759232  	0.012357 
2609.688048  	0.012389 
2611.616864  	0.012421 
2613.545680  	0.012478 
2615.474496  	0.012412 
2617.403312  	0.012384 
2619.332128  	0.012678 
2621.260944  	0.012935 
2623.189760  	0.012745 
2625.118576  	0.012818 
2627.047392  	0.013074 
2628.976208  	0.013317 
2630.905024  	0.013383 
2632.833840  	0.013520 
2634.762656  	0.013643 
2636.691472  	0.013589 
2638.620288  	0.013556 
2640.549104  	0.013676 
2642.477920  	0.013799 
2644.406736  	0.013773 
2646.335552  	0.013927 
2648.264368  	0.014138 
2650.193184  	0.014188 
2652.122000  	0.014284 
2654.050816  	0.014351 
2655.979632  	0.014287 
2657.908448  	0.014308 
2659.837264  	0.014450 
2661.766080  	0.014534 
2663.694896  	0.014483 
2665.623712  	0.014364 
2667.552528  	0.014331 
2669.481344  	0.014587 
2671.410160  	0.014888 
2673.338976  	0.014900 
2675.267792  	0.014869 
2677.196608  	0.014922 
2679.125424  	0.015114 
2681.054240  	0.015191 
2682.983056  	0.015176 
2684.911872  	0.015308 
2686.840688  	0.015443 
2688.769504  	0.015543 
2690.698320  	0.015524 
2692.627136  	0.015581 
2694.555952  	0.015676 
2696.484768  	0.015633 
2698.413584  	0.015710 
2700.342400  	0.015794 
2702.271216  	0.015941 
2704.200032  	0.016186 
2706.128848  	0.016408 
2708.057664  	0.016485 
2709.986480  	0.016448 
2711.915296  	0.016456 
2713.844112  	0.016543 
2715.772928  	0.016752 
2717.701744  	0.016950 
2719.630560  	0.016916 
2721.559376  	0.016908 
2723.488192  	0.017034 
2725.417008  	0.017204 
2727.345824  	0.017333 
2729.274640  	0.017385 
2731.203456  	0.017495 
2733.132272  	0.017694 
2735.061088  	0.017772 
2736.989904  	0.017770 
2738.918720  	0.017804 
2740.847536  	0.017761 
2742.776352  	0.017874 
2744.705168  	0.018162 
2746.633984  	0.018272 
2748.562800  	0.018304 
2750.491616  	0.018419 
2752.420432  	0.018435 
2754.349248  	0.018396 
2756.278064  	0.018500 
2758.206880  	0.018586 
2760.135696  	0.018760 
2762.064512  	0.018776 
2763.993328  	0.018709 
2765.922144  	0.018769 
2767.850960  	0.018815 
2769.779776  	0.018864 
2771.708592  	0.018956 
2773.637408  	0.018988 
2775.566224  	0.019002 
2777.495040  	0.018988 
2779.423856  	0.019057 
2781.352672  	0.019302 
2783.281488  	0.019485 
2785.210304  	0.019442 
2787.139120  	0.019526 
2789.067936  	0.019714 
2790.996752  	0.019742 
2792.925568  	0.019865 
2794.854384  	0.020047 
2796.783200  	0.020152 
2798.712016  	0.020065 
2800.640832  	0.020032 
2802.569648  	0.020294 
2804.498464  	0.020544 
2806.427280  	0.020550 
2808.356096  	0.020585 
2810.284912  	0.020784 
2812.213728  	0.020831 
2814.142544  	0.020907 
2816.071360  	0.021062 
2818.000176  	0.021021 
2819.928992  	0.021040 
2821.857808  	0.021260 
2823.786624  	0.021368 
2825.715440  	0.021400 
2827.644256  	0.021373 
2829.573072  	0.021526 
2831.501888  	0.021631 
2833.430704  	0.021777 
2835.359520  	0.021936 
2837.288336  	0.022078 
2839.217152  	0.022232 
2841.145968  	0.022247 
2843.074784  	0.022319 
2845.003600  	0.022531 
2846.932416  	0.022868 
2848.861232  	0.023118 
2850.790048  	0.023254 
2852.718864  	0.023477 
2854.647680  	0.023773 
2856.576496  	0.024080 
2858.505312  	0.024431 
2860.434128  	0.024760 
2862.362944  	0.025042 
2864.291760  	0.025449 
2866.220576  	0.025940 
2868.149392  	0.026551 
2870.078208  	0.027144 
2872.007024  	0.027437 
2873.935840  	0.027773 
2875.864656  	0.028449 
2877.793472  	0.029306 
2879.722288  	0.030059 
2881.651104  	0.030708 
2883.579920  	0.031186 
2885.508736  	0.031429 
2887.437552  	0.031539 
2889.366368  	0.031711 
2891.295184  	0.032104 
2893.224000  	0.032417 
2895.152816  	0.032619 
2897.081632  	0.032791 
2899.010448  	0.033544 
2900.939264  	0.034379 
2902.868080  	0.034113 
2904.796896  	0.033826 
2906.725712  	0.033688 
2908.654528  	0.033662 
2910.583344  	0.033938 
2912.512160  	0.034345 
2914.440976  	0.034544 
2916.369792  	0.034738 
2918.298608  	0.034979 
2920.227424  	0.035273 
2922.156240  	0.035610 
2924.085056  	0.035892 
2926.013872  	0.036201 
2927.942688  	0.036508 
2929.871504  	0.036716 
2931.800320  	0.036891 
2933.729136  	0.037182 
2935.657952  	0.037405 
2937.586768  	0.037708 
2939.515584  	0.037879 
2941.444400  	0.038180 
2943.373216  	0.038639 
2945.302032  	0.038822 
2947.230848  	0.038939 
2949.159664  	0.039253 
2951.088480  	0.039594 
2953.017296  	0.039968 
2954.946112  	0.040226 
2956.874928  	0.040362 
2958.803744  	0.040370 
2960.732560  	0.040342 
2962.661376  	0.040428 
2964.590192  	0.040611 
2966.519008  	0.041025 
2968.447824  	0.041350 
2970.376640  	0.041481 
2972.305456  	0.041097 
2974.234272  	0.040675 
2976.163088  	0.040396 
2978.091904  	0.040109 
2980.020720  	0.040007 
2981.949536  	0.039930 
2983.878352  	0.039796 
2985.807168  	0.039912 
2987.735984  	0.040313 
2989.664800  	0.040045 
2991.593616  	0.038691 
2993.522432  	0.037973 
2995.451248  	0.037876 
2997.380064  	0.037638 
2999.308880  	0.037207 
3001.237696  	0.036923 
3003.166512  	0.036469 
3005.095328  	0.035925 
3007.024144  	0.035613 
3008.952960  	0.035247 
3010.881776  	0.034856 
3012.810592  	0.034460 
3014.739408  	0.034085 
3016.668224  	0.033964 
3018.597040  	0.033804 
3020.525856  	0.033461 
3022.454672  	0.033097 
3024.383488  	0.032926 
3026.312304  	0.032786 
3028.241120  	0.032647 
3030.169936  	0.032462 
3032.098752  	0.032535 
3034.027568  	0.032340 
3035.956384  	0.032121 
3037.885200  	0.032219 
3039.814016  	0.032446 
3041.742832  	0.032638 
3043.671648  	0.032678 
3045.600464  	0.032745 
3047.529280  	0.032869 
3049.458096  	0.032937 
3051.386912  	0.032895 
3053.315728  	0.032936 
3055.244544  	0.033205 
3057.173360  	0.033665 
3059.102176  	0.033974 
3061.030992  	0.034143 
3062.959808  	0.034358 
3064.888624  	0.034779 
3066.817440  	0.035193 
3068.746256  	0.035340 
3070.675072  	0.035455 
3072.603888  	0.035933 
3074.532704  	0.036479 
3076.461520  	0.036743 
3078.390336  	0.036858 
3080.319152  	0.037230 
3082.247968  	0.037806 
3084.176784  	0.038147 
3086.105600  	0.038158 
3088.034416  	0.038340 
3089.963232  	0.038733 
3091.892048  	0.039172 
3093.820864  	0.039545 
3095.749680  	0.039823 
3097.678496  	0.039850 
3099.607312  	0.040182 
3101.536128  	0.040531 
3103.464944  	0.040805 
3105.393760  	0.041129 
3107.322576  	0.041479 
3109.251392  	0.041779 
3111.180208  	0.041978 
3113.109024  	0.042187 
3115.037840  	0.042320 
3116.966656  	0.042586 
3118.895472  	0.042963 
3120.824288  	0.043146 
3122.753104  	0.043433 
3124.681920  	0.043740 
3126.610736  	0.043861 
3128.539552  	0.044157 
3130.468368  	0.044466 
3132.397184  	0.044513 
3134.326000  	0.044635 
3136.254816  	0.044889 
3138.183632  	0.045123 
3140.112448  	0.045340 
3142.041264  	0.045547 
3143.970080  	0.045636 
3145.898896  	0.045832 
3147.827712  	0.046105 
3149.756528  	0.046334 
3151.685344  	0.046694 
3153.614160  	0.047161 
3155.542976  	0.047246 
3157.471792  	0.047307 
3159.400608  	0.047842 
3161.329424  	0.048329 
3163.258240  	0.048501 
3165.187056  	0.048778 
3167.115872  	0.048961 
3169.044688  	0.049066 
3170.973504  	0.049152 
3172.902320  	0.049261 
3174.831136  	0.049471 
3176.759952  	0.049666 
3178.688768  	0.049932 
3180.617584  	0.050131 
3182.546400  	0.050086 
3184.475216  	0.050383 
3186.404032  	0.050557 
3188.332848  	0.050538 
3190.261664  	0.050718 
3192.190480  	0.050961 
3194.119296  	0.050824 
3196.048112  	0.050797 
3197.976928  	0.051088 
3199.905744  	0.051102 
3201.834560  	0.051029 
3203.763376  	0.051075 
3205.692192  	0.051134 
3207.621008  	0.051000 
3209.549824  	0.050791 
3211.478640  	0.050667 
3213.407456  	0.050533 
3215.336272  	0.050651 
3217.265088  	0.050678 
3219.193904  	0.050464 
3221.122720  	0.050145 
3223.051536  	0.049876 
3224.980352  	0.049711 
3226.909168  	0.049616 
3228.837984  	0.049422 
3230.766800  	0.049404 
3232.695616  	0.049481 
3234.624432  	0.049486 
3236.553248  	0.049493 
3238.482064  	0.049391 
3240.410880  	0.049268 
3242.339696  	0.049214 
3244.268512  	0.049096 
3246.197328  	0.049017 
3248.126144  	0.048987 
3250.054960  	0.049102 
3251.983776  	0.049169 
3253.912592  	0.049132 
3255.841408  	0.049177 
3257.770224  	0.049308 
3259.699040  	0.049509 
3261.627856  	0.049554 
3263.556672  	0.049518 
3265.485488  	0.049547 
3267.414304  	0.049705 
3269.343120  	0.049884 
3271.271936  	0.050040 
3273.200752  	0.050174 
3275.129568  	0.050275 
3277.058384  	0.050311 
3278.987200  	0.050553 
3280.916016  	0.050648 
3282.844832  	0.050641 
3284.773648  	0.050678 
3286.702464  	0.050842 
3288.631280  	0.051101 
3290.560096  	0.051220 
3292.488912  	0.051279 
3294.417728  	0.051369 
3296.346544  	0.051490 
3298.275360  	0.051677 
3300.204176  	0.052056 
3302.132992  	0.052211 
3304.061808  	0.052401 
3305.990624  	0.052736 
3307.919440  	0.053018 
3309.848256  	0.053127 
3311.777072  	0.053256 
3313.705888  	0.053502 
3315.634704  	0.053917 
3317.563520  	0.054259 
3319.492336  	0.054284 
3321.421152  	0.054300 
3323.349968  	0.054376 
3325.278784  	0.054788 
3327.207600  	0.055083 
3329.136416  	0.055084 
3331.065232  	0.055087 
3332.994048  	0.055162 
3334.922864  	0.055206 
3336.851680  	0.055017 
3338.780496  	0.054905 
3340.709312  	0.054948 
3342.638128  	0.055002 
3344.566944  	0.054924 
3346.495760  	0.054770 
3348.424576  	0.054673 
3350.353392  	0.054682 
3352.282208  	0.054500 
3354.211024  	0.054241 
3356.139840  	0.054187 
3358.068656  	0.053992 
3359.997472  	0.053865 
3361.926288  	0.053720 
3363.855104  	0.053349 
3365.783920  	0.053074 
3367.712736  	0.052956 
3369.641552  	0.052667 
3371.570368  	0.052356 
3373.499184  	0.052212 
3375.428000  	0.051980 
3377.356816  	0.051795 
3379.285632  	0.051622 
3381.214448  	0.051445 
3383.143264  	0.051224 
3385.072080  	0.051022 
3387.000896  	0.050808 
3388.929712  	0.050684 
3390.858528  	0.050474 
3392.787344  	0.050154 
3394.716160  	0.049744 
3396.644976  	0.049409 
3398.573792  	0.049305 
3400.502608  	0.048950 
3402.431424  	0.048585 
3404.360240  	0.048319 
3406.289056  	0.048092 
3408.217872  	0.047926 
3410.146688  	0.047718 
3412.075504  	0.047581 
3414.004320  	0.047399 
3415.933136  	0.047022 
3417.861952  	0.046568 
3419.790768  	0.046441 
3421.719584  	0.046271 
3423.648400  	0.045919 
3425.577216  	0.045749 
3427.506032  	0.045656 
3429.434848  	0.045173 
3431.363664  	0.044738 
3433.292480  	0.044680 
3435.221296  	0.044450 
3437.150112  	0.044175 
3439.078928  	0.044026 
3441.007744  	0.043751 
3442.936560  	0.043537 
3444.865376  	0.043163 
3446.794192  	0.042390 
3448.723008  	0.042003 
3450.651824  	0.041808 
3452.580640  	0.041535 
3454.509456  	0.041367 
3456.438272  	0.041003 
3458.367088  	0.040686 
3460.295904  	0.040496 
3462.224720  	0.039912 
3464.153536  	0.039430 
3466.082352  	0.039228 
3468.011168  	0.038968 
3469.939984  	0.038711 
3471.868800  	0.038285 
3473.797616  	0.037898 
3475.726432  	0.037368 
3477.655248  	0.036775 
3479.584064  	0.036406 
3481.512880  	0.036138 
3483.441696  	0.035789 
3485.370512  	0.035183 
3487.299328  	0.034766 
3489.228144  	0.034494 
3491.156960  	0.034056 
3493.085776  	0.033692 
3495.014592  	0.033189 
3496.943408  	0.032724 
3498.872224  	0.032283 
3500.801040  	0.031869 
3502.729856  	0.031349 
3504.658672  	0.030875 
3506.587488  	0.030420 
3508.516304  	0.030076 
3510.445120  	0.030033 
3512.373936  	0.030124 
3514.302752  	0.029963 
3516.231568  	0.029417 
3518.160384  	0.028798 
3520.089200  	0.028590 
3522.018016  	0.028233 
3523.946832  	0.027673 
3525.875648  	0.027410 
3527.804464  	0.027159 
3529.733280  	0.027090 
3531.662096  	0.026831 
3533.590912  	0.026383 
3535.519728  	0.026219 
3537.448544  	0.026147 
3539.377360  	0.025924 
3541.306176  	0.025652 
3543.234992  	0.025225 
3545.163808  	0.024714 
3547.092624  	0.024115 
3549.021440  	0.023908 
3550.950256  	0.023790 
3552.879072  	0.023610 
3554.807888  	0.023604 
3556.736704  	0.023372 
3558.665520  	0.022964 
3560.594336  	0.022788 
3562.523152  	0.022519 
3564.451968  	0.021713 
3566.380784  	0.020536 
3568.309600  	0.020385 
3570.238416  	0.020926 
3572.167232  	0.020738 
3574.096048  	0.020251 
3576.024864  	0.019885 
3577.953680  	0.019509 
3579.882496  	0.019167 
3581.811312  	0.019056 
3583.740128  	0.018652 
3585.668944  	0.017692 
3587.597760  	0.017089 
3589.526576  	0.017222 
3591.455392  	0.016818 
3593.384208  	0.016439 
3595.313024  	0.016054 
3597.241840  	0.015561 
3599.170656  	0.015017 
3601.099472  	0.014794 
3603.028288  	0.014940 
3604.957104  	0.014641 
3606.885920  	0.013590 
3608.814736  	0.013198 
3610.743552  	0.012907 
3612.672368  	0.011992 
3614.601184  	0.011718 
3616.530000  	0.011333 
3618.458816  	0.010460 
3620.387632  	0.010493 
3622.316448  	0.011005 
3624.245264  	0.010906 
3626.174080  	0.009977 
3628.102896  	0.008437 
3630.031712  	0.008455 
3631.960528  	0.009444 
3633.889344  	0.009069 
3635.818160  	0.008571 
3637.746976  	0.008501 
3639.675792  	0.008790 
3641.604608  	0.008753 
3643.533424  	0.008404 
3645.462240  	0.007546 
3647.391056  	0.005937 
3649.319872  	0.004907 
3651.248688  	0.005989 
3653.177504  	0.007278 
3655.106320  	0.006837 
3657.035136  	0.006699 
3658.963952  	0.007360 
3660.892768  	0.007160 
3662.821584  	0.006944 
3664.750400  	0.006762 
3666.679216  	0.006311 
3668.608032  	0.004855 
3670.536848  	0.004116 
3672.465664  	0.004933 
3674.394480  	0.003898 
3676.323296  	0.003429 
3678.252112  	0.004404 
3680.180928  	0.004686 
3682.109744  	0.005121 
3684.038560  	0.005099 
3685.967376  	0.004416 
3687.896192  	0.003085 
3689.825008  	0.002570 
3691.753824  	0.003220 
3693.682640  	0.003918 
3695.611456  	0.003719 
3697.540272  	0.003256 
3699.469088  	0.002838 
3701.397904  	0.002500 
3703.326720  	0.002638 
3705.255536  	0.002637 
3707.184352  	0.002019 
3709.113168  	0.001194 
3711.041984  	0.000633 
3712.970800  	0.001004 
3714.899616  	0.001884 
3716.828432  	0.002149 
3718.757248  	0.001693 
3720.686064  	0.001266 
3722.614880  	0.001129 
3724.543696  	0.001000 
3726.472512  	0.001018 
3728.401328  	0.001404 
3730.330144  	0.000947 
3732.258960  	-0.000042 
3734.187776  	-0.000495 
3736.116592  	-0.000223 
3738.045408  	0.000579 
3739.974224  	0.000769 
3741.903040  	0.000620 
3743.831856  	0.000157 
3745.760672  	0.000385 
3747.689488  	0.000402 
3749.618304  	-0.000561 
3751.547120  	-0.000595 
3753.475936  	0.000871 
3755.404752  	0.001520 
3757.333568  	0.001028 
3759.262384  	0.000782 
3761.191200  	0.001532 
3763.120016  	0.002137 
3765.048832  	0.001691 
3766.977648  	0.001581 
3768.906464  	0.001283 
3770.835280  	0.001419 
3772.764096  	0.002145 
3774.692912  	0.002282 
3776.621728  	0.001835 
3778.550544  	0.001370 
3780.479360  	0.001494 
3782.408176  	0.001770 
3784.336992  	0.001533 
3786.265808  	0.001712 
3788.194624  	0.002111 
3790.123440  	0.002160 
3792.052256  	0.002067 
3793.981072  	0.001798 
3795.909888  	0.001131 
3797.838704  	0.001143 
3799.767520  	0.000963 
3801.696336  	0.000431 
3803.625152  	0.001066 
3805.553968  	0.001065 
3807.482784  	0.000973 
3809.411600  	0.001800 
3811.340416  	0.002261 
3813.269232  	0.002079 
3815.198048  	0.000824 
3817.126864  	0.000572 
3819.055680  	0.000518 
3820.984496  	-0.000118 
3822.913312  	0.001042 
3824.842128  	0.001491 
3826.770944  	0.001216 
3828.699760  	0.001595 
3830.628576  	0.001323 
3832.557392  	0.001179 
3834.486208  	0.001025 
3836.415024  	0.000326 
3838.343840  	0.000038 
3840.272656  	0.000399 
3842.201472  	0.000818 
3844.130288  	0.001092 
3846.059104  	0.001844 
3847.987920  	0.002102 
3849.916736  	0.001611 
3851.845552  	0.000212 
3853.774368  	-0.000622 
3855.703184  	0.000704 
3857.632000  	0.001353 
3859.560816  	0.001587 
3861.489632  	0.001310 
3863.418448  	0.001052 
3865.347264  	0.001178 
3867.276080  	0.001378 
3869.204896  	0.000754 
3871.133712  	0.001067 
3873.062528  	0.001176 
3874.991344  	0.001296 
3876.920160  	0.001902 
3878.848976  	0.001557 
3880.777792  	0.001169 
3882.706608  	0.001618 
3884.635424  	0.001287 
3886.564240  	0.001234 
3888.493056  	0.001797 
3890.421872  	0.001398 
3892.350688  	0.001326 
3894.279504  	0.001853 
3896.208320  	0.002059 
3898.137136  	0.001566 
3900.065952  	0.000898 
3901.994768  	0.000714 
3903.923584  	0.000827 
3905.852400  	0.001376 
3907.781216  	0.001849 
3909.710032  	0.002015 
3911.638848  	0.002037 
3913.567664  	0.002180 
3915.496480  	0.002010 
3917.425296  	0.001803 
3919.354112  	0.001716 
3921.282928  	0.001936 
3923.211744  	0.002004 
3925.140560  	0.001870 
3927.069376  	0.001970 
3928.998192  	0.001828 
3930.927008  	0.001718 
3932.855824  	0.001726 
3934.784640  	0.001944 
3936.713456  	0.002328 
3938.642272  	0.002392 
3940.571088  	0.002124 
3942.499904  	0.002052 
3944.428720  	0.002233 
3946.357536  	0.002207 
3948.286352  	0.001926 
3950.215168  	0.001788 
3952.143984  	0.001998 
3954.072800  	0.002159 
3956.001616  	0.002204 
3957.930432  	0.002368 
3959.859248  	0.002409 
3961.788064  	0.002201 
3963.716880  	0.002171 
3965.645696  	0.002232 
3967.574512  	0.002314 
3969.503328  	0.002321 
3971.432144  	0.002227 
3973.360960  	0.002137 
3975.289776  	0.002183 
3977.218592  	0.002361 
3979.147408  	0.002401 
3981.076224  	0.002173 
3983.005040  	0.002119 
3984.933856  	0.002332 
3986.862672  	0.002446 
3988.791488  	0.002358 
3990.720304  	0.002237 
3992.649120  	0.002245 
3994.577936  	0.002292 
3996.506752  	0.002245 
3998.435568  	0.002340 
4000.364384  	0.002452 