##TITLE=No Description
##DATA TYPE=INFRARED SPECTRUM
##XUNITS=1/CM
##YUNITS=Abs
399.264912  	0.620714 
401.193728  	0.611341 
403.122544  	0.608591 
405.051360  	0.607944 
406.980176  	0.611033 
408.908992  	0.598695 
410.837808  	0.591478 
412.766624  	0.578675 
414.695440  	0.574245 
416.624256  	0.570448 
418.553072  	0.555403 
420.481888  	0.547297 
422.410704  	0.555176 
424.339520  	0.544848 
426.268336  	0.553130 
428.197152  	0.558719 
430.125968  	0.557530 
432.054784  	0.544361 
433.983600  	0.537958 
435.912416  	0.531804 
437.841232  	0.535040 
439.770048  	0.531893 
441.698864  	0.529099 
443.627680  	0.523367 
445.556496  	0.527110 
447.485312  	0.525391 
449.414128  	0.525041 
451.342944  	0.521428 
453.271760  	0.524139 
455.200576  	0.518478 
457.129392  	0.518575 
459.058208  	0.517522 
460.987024  	0.516404 
462.915840  	0.512389 
464.844656  	0.514913 
466.773472  	0.513164 
468.702288  	0.514257 
470.631104  	0.513854 
472.559920  	0.513949 
474.488736  	0.507191 
476.417552  	0.512847 
478.346368  	0.514659 
480.275184  	0.517453 
482.204000  	0.516675 
484.132816  	0.512377 
486.061632  	0.506763 
487.990448  	0.510017 
489.919264  	0.507867 
491.848080  	0.506349 
493.776896  	0.502022 
495.705712  	0.499896 
497.634528  	0.499449 
499.563344  	0.500070 
501.492160  	0.495894 
503.420976  	0.494936 
505.349792  	0.496009 
507.278608  	0.497456 
509.207424  	0.491114 
511.136240  	0.491054 
513.065056  	0.494398 
514.993872  	0.496357 
516.922688  	0.493434 
518.851504  	0.494086 
520.780320  	0.492292 
522.709136  	0.493895 
524.637952  	0.491780 
526.566768  	0.489335 
528.495584  	0.487670 
530.424400  	0.487594 
532.353216  	0.482523 
534.282032  	0.479892 
536.210848  	0.477133 
538.139664  	0.472700 
540.068480  	0.468067 
541.997296  	0.465523 
543.926112  	0.462155 
545.854928  	0.459313 
547.783744  	0.453458 
549.712560  	0.450397 
551.641376  	0.447869 
553.570192  	0.446219 
555.499008  	0.442325 
557.427824  	0.438772 
559.356640  	0.435767 
561.285456  	0.433611 
563.214272  	0.429338 
565.143088  	0.425457 
567.071904  	0.421512 
569.000720  	0.418808 
570.929536  	0.415605 
572.858352  	0.413197 
574.787168  	0.410576 
576.715984  	0.408287 
578.644800  	0.404802 
580.573616  	0.401957 
582.502432  	0.398386 
584.431248  	0.396309 
586.360064  	0.394223 
588.288880  	0.392414 
590.217696  	0.389625 
592.146512  	0.387841 
594.075328  	0.386093 
596.004144  	0.383447 
597.932960  	0.381516 
599.861776  	0.380713 
601.790592  	0.378689 
603.719408  	0.376814 
605.648224  	0.375033 
607.577040  	0.373928 
609.505856  	0.372924 
611.434672  	0.372181 
613.363488  	0.369965 
615.292304  	0.367842 
617.221120  	0.365147 
619.149936  	0.364155 
621.078752  	0.362081 
623.007568  	0.360316 
624.936384  	0.358256 
626.865200  	0.357141 
628.794016  	0.355969 
630.722832  	0.353797 
632.651648  	0.351945 
634.580464  	0.351850 
636.509280  	0.352123 
638.438096  	0.351066 
640.366912  	0.349425 
642.295728  	0.347604 
644.224544  	0.345141 
646.153360  	0.343275 
648.082176  	0.340032 
650.010992  	0.337160 
651.939808  	0.333693 
653.868624  	0.330067 
655.797440  	0.326385 
657.726256  	0.323337 
659.655072  	0.319747 
661.583888  	0.317234 
663.512704  	0.314203 
665.441520  	0.310933 
667.370336  	0.306193 
669.299152  	0.301016 
671.227968  	0.300393 
673.156784  	0.298893 
675.085600  	0.296370 
677.014416  	0.294300 
678.943232  	0.292104 
680.872048  	0.290316 
682.800864  	0.288496 
684.729680  	0.286823 
686.658496  	0.284452 
688.587312  	0.282320 
690.516128  	0.280273 
692.444944  	0.278787 
694.373760  	0.277160 
696.302576  	0.275525 
698.231392  	0.273458 
700.160208  	0.271087 
702.089024  	0.268120 
704.017840  	0.266556 
705.946656  	0.264372 
707.875472  	0.261734 
709.804288  	0.259764 
711.733104  	0.258410 
713.661920  	0.256617 
715.590736  	0.255488 
717.519552  	0.254408 
719.448368  	0.253689 
721.377184  	0.253662 
723.306000  	0.253863 
725.234816  	0.253114 
727.163632  	0.251442 
729.092448  	0.249245 
731.021264  	0.247478 
732.950080  	0.245243 
734.878896  	0.242373 
736.807712  	0.239539 
738.736528  	0.237494 
740.665344  	0.235892 
742.594160  	0.234524 
744.522976  	0.232963 
746.451792  	0.231435 
748.380608  	0.229831 
750.309424  	0.228820 
752.238240  	0.228234 
754.167056  	0.227777 
756.095872  	0.226482 
758.024688  	0.225056 
759.953504  	0.223797 
761.882320  	0.223400 
763.811136  	0.222917 
765.739952  	0.221979 
767.668768  	0.220789 
769.597584  	0.219449 
771.526400  	0.218437 
773.455216  	0.218631 
775.384032  	0.219793 
777.312848  	0.222101 
779.241664  	0.224610 
781.170480  	0.224839 
783.099296  	0.222267 
785.028112  	0.217997 
786.956928  	0.212826 
788.885744  	0.208600 
790.814560  	0.205463 
792.743376  	0.203332 
794.672192  	0.201577 
796.601008  	0.200713 
798.529824  	0.198772 
800.458640  	0.195575 
802.387456  	0.192413 
804.316272  	0.190599 
806.245088  	0.189465 
808.173904  	0.188756 
810.102720  	0.188262 
812.031536  	0.187659 
813.960352  	0.186626 
815.889168  	0.185837 
817.817984  	0.185352 
819.746800  	0.184788 
821.675616  	0.183821 
823.604432  	0.182917 
825.533248  	0.181703 
827.462064  	0.180400 
829.390880  	0.179073 
831.319696  	0.177708 
833.248512  	0.175968 
835.177328  	0.174156 
837.106144  	0.172009 
839.034960  	0.169470 
840.963776  	0.166868 
842.892592  	0.164581 
844.821408  	0.162078 
846.750224  	0.159799 
848.679040  	0.158029 
850.607856  	0.156518 
852.536672  	0.155300 
854.465488  	0.154093 
856.394304  	0.152618 
858.323120  	0.151350 
860.251936  	0.150138 
862.180752  	0.148669 
864.109568  	0.147034 
866.038384  	0.145700 
867.967200  	0.144473 
869.896016  	0.143290 
871.824832  	0.142132 
873.753648  	0.141127 
875.682464  	0.140755 
877.611280  	0.141092 
879.540096  	0.141468 
881.468912  	0.141312 
883.397728  	0.141146 
885.326544  	0.140954 
887.255360  	0.140342 
889.184176  	0.139619 
891.112992  	0.139021 
893.041808  	0.137486 
894.970624  	0.135317 
896.899440  	0.132932 
898.828256  	0.129985 
900.757072  	0.127149 
902.685888  	0.124624 
904.614704  	0.122901 
906.543520  	0.122056 
908.472336  	0.122065 
910.401152  	0.122947 
912.329968  	0.124353 
914.258784  	0.125900 
916.187600  	0.127384 
918.116416  	0.128232 
920.045232  	0.128262 
921.974048  	0.127414 
923.902864  	0.126551 
925.831680  	0.125675 
927.760496  	0.124359 
929.689312  	0.123169 
931.618128  	0.122761 
933.546944  	0.122640 
935.475760  	0.122230 
937.404576  	0.121790 
939.333392  	0.121941 
941.262208  	0.122479 
943.191024  	0.123714 
945.119840  	0.126013 
947.048656  	0.129064 
948.977472  	0.132936 
950.906288  	0.137566 
952.835104  	0.142558 
954.763920  	0.147495 
956.692736  	0.151993 
958.621552  	0.155823 
960.550368  	0.158266 
962.479184  	0.159080 
964.408000  	0.157745 
966.336816  	0.154633 
968.265632  	0.149659 
970.194448  	0.143546 
972.123264  	0.136453 
974.052080  	0.128846 
975.980896  	0.121316 
977.909712  	0.114307 
979.838528  	0.108426 
981.767344  	0.103546 
983.696160  	0.099959 
985.624976  	0.098052 
987.553792  	0.097909 
989.482608  	0.099111 
991.411424  	0.101530 
993.340240  	0.105144 
995.269056  	0.109772 
997.197872  	0.114795 
999.126688  	0.119850 
1001.055504  	0.125155 
1002.984320  	0.130466 
1004.913136  	0.135641 
1006.841952  	0.140179 
1008.770768  	0.144205 
1010.699584  	0.147578 
1012.628400  	0.150104 
1014.557216  	0.151792 
1016.486032  	0.152860 
1018.414848  	0.153568 
1020.343664  	0.154282 
1022.272480  	0.154808 
1024.201296  	0.155412 
1026.130112  	0.156699 
1028.058928  	0.157843 
1029.987744  	0.157659 
1031.916560  	0.159232 
1033.845376  	0.162133 
1035.774192  	0.165713 
1037.703008  	0.169553 
1039.631824  	0.173920 
1041.560640  	0.179461 
1043.489456  	0.186939 
1045.418272  	0.195848 
1047.347088  	0.206035 
1049.275904  	0.216552 
1051.204720  	0.227023 
1053.133536  	0.236030 
1055.062352  	0.243898 
1056.991168  	0.249440 
1058.919984  	0.251621 
1060.848800  	0.251668 
1062.777616  	0.252615 
1064.706432  	0.253802 
1066.635248  	0.253032 
1068.564064  	0.248216 
1070.492880  	0.243701 
1072.421696  	0.240220 
1074.350512  	0.237172 
1076.279328  	0.233804 
1078.208144  	0.231282 
1080.136960  	0.228944 
1082.065776  	0.226533 
1083.994592  	0.223814 
1085.923408  	0.221095 
1087.852224  	0.217835 
1089.781040  	0.214024 
1091.709856  	0.208862 
1093.638672  	0.203266 
1095.567488  	0.196711 
1097.496304  	0.189614 
1099.425120  	0.182003 
1101.353936  	0.174374 
1103.282752  	0.166365 
1105.211568  	0.157874 
1107.140384  	0.149205 
1109.069200  	0.140518 
1110.998016  	0.132370 
1112.926832  	0.124712 
1114.855648  	0.117253 
1116.784464  	0.109927 
1118.713280  	0.103473 
1120.642096  	0.097698 
1122.570912  	0.092203 
1124.499728  	0.087038 
1126.428544  	0.082074 
1128.357360  	0.077714 
1130.286176  	0.073697 
1132.214992  	0.070276 
1134.143808  	0.067347 
1136.072624  	0.064650 
1138.001440  	0.061981 
1139.930256  	0.059432 
1141.859072  	0.057326 
1143.787888  	0.055002 
1145.716704  	0.052951 
1147.645520  	0.051484 
1149.574336  	0.050282 
1151.503152  	0.049329 
1153.431968  	0.048828 
1155.360784  	0.048625 
1157.289600  	0.048848 
1159.218416  	0.049271 
1161.147232  	0.050095 
1163.076048  	0.051098 
1165.004864  	0.052381 
1166.933680  	0.053428 
1168.862496  	0.054697 
1170.791312  	0.056426 
1172.720128  	0.058088 
1174.648944  	0.059557 
1176.577760  	0.061252 
1178.506576  	0.063037 
1180.435392  	0.064696 
1182.364208  	0.066372 
1184.293024  	0.068139 
1186.221840  	0.070016 
1188.150656  	0.072315 
1190.079472  	0.074833 
1192.008288  	0.077668 
1193.937104  	0.081227 
1195.865920  	0.085355 
1197.794736  	0.089597 
1199.723552  	0.094443 
1201.652368  	0.099664 
1203.581184  	0.105194 
1205.510000  	0.110718 
1207.438816  	0.116282 
1209.367632  	0.121698 
1211.296448  	0.126684 
1213.225264  	0.131542 
1215.154080  	0.136055 
1217.082896  	0.139824 
1219.011712  	0.142936 
1220.940528  	0.146061 
1222.869344  	0.148635 
1224.798160  	0.150865 
1226.726976  	0.152628 
1228.655792  	0.153998 
1230.584608  	0.154572 
1232.513424  	0.154508 
1234.442240  	0.153426 
1236.371056  	0.151638 
1238.299872  	0.149202 
1240.228688  	0.146919 
1242.157504  	0.143229 
1244.086320  	0.138302 
1246.015136  	0.133426 
1247.943952  	0.128753 
1249.872768  	0.123821 
1251.801584  	0.118396 
1253.730400  	0.112866 
1255.659216  	0.107453 
1257.588032  	0.102163 
1259.516848  	0.097083 
1261.445664  	0.092266 
1263.374480  	0.087769 
1265.303296  	0.083562 
1267.232112  	0.079914 
1269.160928  	0.077098 
1271.089744  	0.074928 
1273.018560  	0.073604 
1274.947376  	0.072787 
1276.876192  	0.072022 
1278.805008  	0.071081 
1280.733824  	0.069506 
1282.662640  	0.067120 
1284.591456  	0.064220 
1286.520272  	0.061391 
1288.449088  	0.059170 
1290.377904  	0.057463 
1292.306720  	0.056022 
1294.235536  	0.054310 
1296.164352  	0.051957 
1298.093168  	0.049365 
1300.021984  	0.046724 
1301.950800  	0.044111 
1303.879616  	0.041942 
1305.808432  	0.040083 
1307.737248  	0.038430 
1309.666064  	0.036924 
1311.594880  	0.035911 
1313.523696  	0.035250 
1315.452512  	0.034925 
1317.381328  	0.034896 
1319.310144  	0.035184 
1321.238960  	0.035860 
1323.167776  	0.036660 
1325.096592  	0.037125 
1327.025408  	0.037351 
1328.954224  	0.037133 
1330.883040  	0.036657 
1332.811856  	0.035963 
1334.740672  	0.035265 
1336.669488  	0.034357 
1338.598304  	0.033610 
1340.527120  	0.033302 
1342.455936  	0.033349 
1344.384752  	0.033372 
1346.313568  	0.033785 
1348.242384  	0.034583 
1350.171200  	0.035891 
1352.100016  	0.037370 
1354.028832  	0.038875 
1355.957648  	0.040630 
1357.886464  	0.042429 
1359.815280  	0.043691 
1361.744096  	0.044809 
1363.672912  	0.046524 
1365.601728  	0.048099 
1367.530544  	0.048904 
1369.459360  	0.049558 
1371.388176  	0.049695 
1373.316992  	0.049034 
1375.245808  	0.048426 
1377.174624  	0.047860 
1379.103440  	0.046642 
1381.032256  	0.045443 
1382.961072  	0.044366 
1384.889888  	0.043081 
1386.818704  	0.041324 
1388.747520  	0.040298 
1390.676336  	0.040086 
1392.605152  	0.040459 
1394.533968  	0.039831 
1396.462784  	0.038373 
1398.391600  	0.038096 
1400.320416  	0.039420 
1402.249232  	0.040661 
1404.178048  	0.041693 
1406.106864  	0.043027 
1408.035680  	0.044278 
1409.964496  	0.045129 
1411.893312  	0.046061 
1413.822128  	0.046885 
1415.750944  	0.047113 
1417.679760  	0.046326 
1419.608576  	0.045874 
1421.537392  	0.045787 
1423.466208  	0.044909 
1425.395024  	0.043807 
1427.323840  	0.042370 
1429.252656  	0.040515 
1431.181472  	0.039581 
1433.110288  	0.039400 
1435.039104  	0.039011 
1436.967920  	0.039065 
1438.896736  	0.040191 
1440.825552  	0.040802 
1442.754368  	0.041219 
1444.683184  	0.041210 
1446.612000  	0.041012 
1448.540816  	0.041405 
1450.469632  	0.042032 
1452.398448  	0.041993 
1454.327264  	0.041363 
1456.256080  	0.039673 
1458.184896  	0.039959 
1460.113712  	0.041316 
1462.042528  	0.041941 
1463.971344  	0.041851 
1465.900160  	0.043362 
1467.828976  	0.045277 
1469.757792  	0.046700 
1471.686608  	0.047949 
1473.615424  	0.051833 
1475.544240  	0.055113 
1477.473056  	0.057822 
1479.401872  	0.059146 
1481.330688  	0.059684 
1483.259504  	0.060058 
1485.188320  	0.059471 
1487.117136  	0.057744 
1489.045952  	0.055729 
1490.974768  	0.053850 
1492.903584  	0.052346 
1494.832400  	0.049484 
1496.761216  	0.045877 
1498.690032  	0.043152 
1500.618848  	0.041341 
1502.547664  	0.039387 
1504.476480  	0.036576 
1506.405296  	0.032570 
1508.334112  	0.032005 
1510.262928  	0.032476 
1512.191744  	0.032086 
1514.120560  	0.031190 
1516.049376  	0.030381 
1517.978192  	0.030784 
1519.907008  	0.031130 
1521.835824  	0.032531 
1523.764640  	0.035183 
1525.693456  	0.036998 
1527.622272  	0.038867 
1529.551088  	0.040125 
1531.479904  	0.040024 
1533.408720  	0.038948 
1535.337536  	0.038536 
1537.266352  	0.036631 
1539.195168  	0.032602 
1541.123984  	0.030276 
1543.052800  	0.030576 
1544.981616  	0.030400 
1546.910432  	0.030432 
1548.839248  	0.029762 
1550.768064  	0.029709 
1552.696880  	0.029717 
1554.625696  	0.029874 
1556.554512  	0.029309 
1558.483328  	0.028097 
1560.412144  	0.032883 
1562.340960  	0.036304 
1564.269776  	0.038043 
1566.198592  	0.040873 
1568.127408  	0.042897 
1570.056224  	0.046599 
1571.985040  	0.050540 
1573.913856  	0.052274 
1575.842672  	0.053027 
1577.771488  	0.055157 
1579.700304  	0.055686 
1581.629120  	0.055738 
1583.557936  	0.055907 
1585.486752  	0.056929 
1587.415568  	0.058666 
1589.344384  	0.061577 
1591.273200  	0.065058 
1593.202016  	0.069198 
1595.130832  	0.073229 
1597.059648  	0.077435 
1598.988464  	0.080730 
1600.917280  	0.083354 
1602.846096  	0.084962 
1604.774912  	0.085952 
1606.703728  	0.085606 
1608.632544  	0.085203 
1610.561360  	0.084565 
1612.490176  	0.084203 
1614.418992  	0.083385 
1616.347808  	0.083626 
1618.276624  	0.085917 
1620.205440  	0.088645 
1622.134256  	0.090931 
1624.063072  	0.095937 
1625.991888  	0.100809 
1627.920704  	0.106189 
1629.849520  	0.112563 
1631.778336  	0.118209 
1633.707152  	0.121967 
1635.635968  	0.127532 
1637.564784  	0.134666 
1639.493600  	0.139337 
1641.422416  	0.142881 
1643.351232  	0.145451 
1645.280048  	0.145874 
1647.208864  	0.146910 
1649.137680  	0.148540 
1651.066496  	0.147735 
1652.995312  	0.144761 
1654.924128  	0.146705 
1656.852944  	0.146753 
1658.781760  	0.145794 
1660.710576  	0.144129 
1662.639392  	0.142370 
1664.568208  	0.141295 
1666.497024  	0.139999 
1668.425840  	0.137527 
1670.354656  	0.136127 
1672.283472  	0.135736 
1674.212288  	0.134828 
1676.141104  	0.134716 
1678.069920  	0.135315 
1679.998736  	0.135185 
1681.927552  	0.134701 
1683.856368  	0.133541 
1685.785184  	0.135737 
1687.714000  	0.136057 
1689.642816  	0.135447 
1691.571632  	0.134611 
1693.500448  	0.132838 
1695.429264  	0.129307 
1697.358080  	0.126703 
1699.286896  	0.123612 
1701.215712  	0.120310 
1703.144528  	0.118132 
1705.073344  	0.114099 
1707.002160  	0.109977 
1708.930976  	0.106456 
1710.859792  	0.102106 
1712.788608  	0.096870 
1714.717424  	0.090726 
1716.646240  	0.084047 
1718.575056  	0.077925 
1720.503872  	0.073394 
1722.432688  	0.068442 
1724.361504  	0.062617 
1726.290320  	0.057609 
1728.219136  	0.052305 
1730.147952  	0.047260 
1732.076768  	0.042714 
1734.005584  	0.037861 
1735.934400  	0.034403 
1737.863216  	0.032074 
1739.792032  	0.028253 
1741.720848  	0.025730 
1743.649664  	0.023346 
1745.578480  	0.021239 
1747.507296  	0.018752 
1749.436112  	0.017133 
1751.364928  	0.016400 
1753.293744  	0.016381 
1755.222560  	0.015295 
1757.151376  	0.014289 
1759.080192  	0.013598 
1761.009008  	0.013112 
1762.937824  	0.012739 
1764.866640  	0.012811 
1766.795456  	0.011981 
1768.724272  	0.011460 
1770.653088  	0.010306 
1772.581904  	0.009896 
1774.510720  	0.010410 
1776.439536  	0.010761 
1778.368352  	0.010542 
1780.297168  	0.010384 
1782.225984  	0.010312 
1784.154800  	0.010253 
1786.083616  	0.010145 
1788.012432  	0.010077 
1789.941248  	0.009203 
1791.870064  	0.008746 
1793.798880  	0.009025 
1795.727696  	0.009469 
1797.656512  	0.009253 
1799.585328  	0.008874 
1801.514144  	0.008653 
1803.442960  	0.008975 
1805.371776  	0.008946 
1807.300592  	0.008791 
1809.229408  	0.008157 
1811.158224  	0.008051 
1813.087040  	0.008161 
1815.015856  	0.008198 
1816.944672  	0.007884 
1818.873488  	0.008264 
1820.802304  	0.008305 
1822.731120  	0.008096 
1824.659936  	0.007547 
1826.588752  	0.007754 
1828.517568  	0.007416 
1830.446384  	0.007640 
1832.375200  	0.008065 
1834.304016  	0.008081 
1836.232832  	0.007953 
1838.161648  	0.008331 
1840.090464  	0.008180 
1842.019280  	0.007501 
1843.948096  	0.006560 
1845.876912  	0.007189 
1847.805728  	0.007687 
1849.734544  	0.008079 
1851.663360  	0.008111 
1853.592176  	0.008160 
1855.520992  	0.007997 
1857.449808  	0.008287 
1859.378624  	0.008032 
1861.307440  	0.007903 
1863.236256  	0.007671 
1865.165072  	0.007676 
1867.093888  	0.007402 
1869.022704  	0.007634 
1870.951520  	0.007949 
1872.880336  	0.008138 
1874.809152  	0.007794 
1876.737968  	0.008006 
1878.666784  	0.007823 
1880.595600  	0.007769 
1882.524416  	0.007642 
1884.453232  	0.007454 
1886.382048  	0.007257 
1888.310864  	0.007251 
1890.239680  	0.007543 
1892.168496  	0.008208 
1894.097312  	0.007821 
1896.026128  	0.007980 
1897.954944  	0.007735 
1899.883760  	0.007640 
1901.812576  	0.007621 
1903.741392  	0.007997 
1905.670208  	0.007772 
1907.599024  	0.007516 
1909.527840  	0.007380 
1911.456656  	0.008000 
1913.385472  	0.008092 
1915.314288  	0.007855 
1917.243104  	0.007061 
1919.171920  	0.007216 
1921.100736  	0.007559 
1923.029552  	0.008098 
1924.958368  	0.007853 
1926.887184  	0.007926 
1928.816000  	0.007536 
1930.744816  	0.007242 
1932.673632  	0.007255 
1934.602448  	0.008061 
1936.531264  	0.008483 
1938.460080  	0.008396 
1940.388896  	0.008029 
1942.317712  	0.007776 
1944.246528  	0.007618 
1946.175344  	0.008333 
1948.104160  	0.007743 
1950.032976  	0.007539 
1951.961792  	0.007686 
1953.890608  	0.008024 
1955.819424  	0.007310 
1957.748240  	0.007483 
1959.677056  	0.007613 
1961.605872  	0.007684 
1963.534688  	0.007634 
1965.463504  	0.008621 
1967.392320  	0.007949 
1969.321136  	0.007673 
1971.249952  	0.007989 
1973.178768  	0.009731 
1975.107584  	0.008003 
1977.036400  	0.007049 
1978.965216  	0.009328 
1980.894032  	0.010512 
1982.822848  	0.008257 
1984.751664  	0.007868 
1986.680480  	0.008138 
1988.609296  	0.008329 
1990.538112  	0.008633 
1992.466928  	0.009122 
1994.395744  	0.008079 
1996.324560  	0.008885 
1998.253376  	0.009064 
2000.182192  	0.008412 
2002.111008  	0.008353 
2004.039824  	0.008850 
2005.968640  	0.008508 
2007.897456  	0.009172 
2009.826272  	0.008724 
2011.755088  	0.007728 
2013.683904  	0.007941 
2015.612720  	0.009272 
2017.541536  	0.008721 
2019.470352  	0.008020 
2021.399168  	0.007656 
2023.327984  	0.009083 
2025.256800  	0.008611 
2027.185616  	0.008233 
2029.114432  	0.008683 
2031.043248  	0.010163 
2032.972064  	0.009493 
2034.900880  	0.009957 
2036.829696  	0.010089 
2038.758512  	0.009806 
2040.687328  	0.009473 
2042.616144  	0.008935 
2044.544960  	0.008906 
2046.473776  	0.009633 
2048.402592  	0.009095 
2050.331408  	0.009928 
2052.260224  	0.009668 
2054.189040  	0.009205 
2056.117856  	0.008338 
2058.046672  	0.008106 
2059.975488  	0.007647 
2061.904304  	0.007756 
2063.833120  	0.008865 
2065.761936  	0.009615 
2067.690752  	0.009046 
2069.619568  	0.008777 
2071.548384  	0.007988 
2073.477200  	0.008357 
2075.406016  	0.009416 
2077.334832  	0.009361 
2079.263648  	0.008342 
2081.192464  	0.008062 
2083.121280  	0.008548 
2085.050096  	0.008875 
2086.978912  	0.008632 
2088.907728  	0.008511 
2090.836544  	0.008013 
2092.765360  	0.007909 
2094.694176  	0.008204 
2096.622992  	0.008400 
2098.551808  	0.007910 
2100.480624  	0.008023 
2102.409440  	0.007844 
2104.338256  	0.008123 
2106.267072  	0.008320 
2108.195888  	0.008582 
2110.124704  	0.009332 
2112.053520  	0.009638 
2113.982336  	0.009117 
2115.911152  	0.008808 
2117.839968  	0.008529 
2119.768784  	0.008084 
2121.697600  	0.007857 
2123.626416  	0.007470 
2125.555232  	0.007256 
2127.484048  	0.007742 
2129.412864  	0.007178 
2131.341680  	0.006426 
2133.270496  	0.007125 
2135.199312  	0.008025 
2137.128128  	0.008390 
2139.056944  	0.008598 
2140.985760  	0.007314 
2142.914576  	0.007744 
2144.843392  	0.008041 
2146.772208  	0.008315 
2148.701024  	0.008292 
2150.629840  	0.008495 
2152.558656  	0.008351 
2154.487472  	0.008361 
2156.416288  	0.007274 
2158.345104  	0.008994 
2160.273920  	0.011289 
2162.202736  	0.011099 
2164.131552  	0.010149 
2166.060368  	0.011174 
2167.989184  	0.010331 
2169.918000  	0.009279 
2171.846816  	0.009308 
2173.775632  	0.009783 
2175.704448  	0.009727 
2177.633264  	0.009843 
2179.562080  	0.009751 
2181.490896  	0.008984 
2183.419712  	0.008491 
2185.348528  	0.009280 
2187.277344  	0.009081 
2189.206160  	0.009514 
2191.134976  	0.010272 
2193.063792  	0.011437 
2194.992608  	0.010996 
2196.921424  	0.009456 
2198.850240  	0.009757 
2200.779056  	0.010105 
2202.707872  	0.010016 
2204.636688  	0.010796 
2206.565504  	0.010235 
2208.494320  	0.009466 
2210.423136  	0.008408 
2212.351952  	0.008810 
2214.280768  	0.009771 
2216.209584  	0.009501 
2218.138400  	0.009389 
2220.067216  	0.009427 
2221.996032  	0.009123 
2223.924848  	0.009254 
2225.853664  	0.009524 
2227.782480  	0.010278 
2229.711296  	0.010606 
2231.640112  	0.010169 
2233.568928  	0.009305 
2235.497744  	0.009484 
2237.426560  	0.009587 
2239.355376  	0.009153 
2241.284192  	0.008606 
2243.213008  	0.008892 
2245.141824  	0.009310 
2247.070640  	0.008932 
2248.999456  	0.008539 
2250.928272  	0.009010 
2252.857088  	0.008964 
2254.785904  	0.008516 
2256.714720  	0.008904 
2258.643536  	0.009466 
2260.572352  	0.009200 
2262.501168  	0.009169 
2264.429984  	0.009387 
2266.358800  	0.009907 
2268.287616  	0.010041 
2270.216432  	0.009772 
2272.145248  	0.009363 
2274.074064  	0.009746 
2276.002880  	0.009660 
2277.931696  	0.009853 
2279.860512  	0.010200 
2281.789328  	0.010218 
2283.718144  	0.009852 
2285.646960  	0.009943 
2287.575776  	0.010064 
2289.504592  	0.009762 
2291.433408  	0.009368 
2293.362224  	0.009074 
2295.291040  	0.008936 
2297.219856  	0.009214 
2299.148672  	0.009171 
2301.077488  	0.008870 
2303.006304  	0.008807 
2304.935120  	0.008526 
2306.863936  	0.008058 
2308.792752  	0.007827 
2310.721568  	0.007595 
2312.650384  	0.007532 
2314.579200  	0.007499 
2316.508016  	0.007356 
2318.436832  	0.006731 
2320.365648  	0.006173 
2322.294464  	0.005881 
2324.223280  	0.005484 
2326.152096  	0.004211 
2328.080912  	0.003369 
2330.009728  	0.002893 
2331.938544  	0.002652 
2333.867360  	0.002236 
2335.796176  	0.001601 
2337.724992  	0.001325 
2339.653808  	0.001488 
2341.582624  	0.001375 
2343.511440  	0.002173 
2345.440256  	0.003209 
2347.369072  	0.004672 
2349.297888  	0.004834 
2351.226704  	0.003517 
2353.155520  	0.001969 
2355.084336  	0.000512 
2357.013152  	-0.000490 
2358.941968  	-0.001267 
2360.870784  	-0.001619 
2362.799600  	-0.000838 
2364.728416  	-0.000507 
2366.657232  	0.000133 
2368.586048  	0.001002 
2370.514864  	0.002469 
2372.443680  	0.003906 
2374.372496  	0.005492 
2376.301312  	0.006531 
2378.230128  	0.007321 
2380.158944  	0.007865 
2382.087760  	0.008377 
2384.016576  	0.008865 
2385.945392  	0.009362 
2387.874208  	0.009368 
2389.803024  	0.009284 
2391.731840  	0.009255 
2393.660656  	0.009369 
2395.589472  	0.009485 
2397.518288  	0.009561 
2399.447104  	0.009475 
2401.375920  	0.009217 
2403.304736  	0.009253 
2405.233552  	0.009506 
2407.162368  	0.009589 
2409.091184  	0.009589 
2411.020000  	0.009690 
2412.948816  	0.009856 
2414.877632  	0.009817 
2416.806448  	0.009880 
2418.735264  	0.009884 
2420.664080  	0.009716 
2422.592896  	0.009525 
2424.521712  	0.009653 
2426.450528  	0.009902 
2428.379344  	0.009795 
2430.308160  	0.009794 
2432.236976  	0.009852 
2434.165792  	0.010068 
2436.094608  	0.010479 
2438.023424  	0.010541 
2439.952240  	0.010588 
2441.881056  	0.010597 
2443.809872  	0.010446 
2445.738688  	0.010379 
2447.667504  	0.010473 
2449.596320  	0.010474 
2451.525136  	0.010285 
2453.453952  	0.010181 
2455.382768  	0.010607 
2457.311584  	0.010962 
2459.240400  	0.010976 
2461.169216  	0.010930 
2463.098032  	0.010868 
2465.026848  	0.010616 
2466.955664  	0.010490 
2468.884480  	0.010499 
2470.813296  	0.010726 
2472.742112  	0.010720 
2474.670928  	0.010673 
2476.599744  	0.010734 
2478.528560  	0.010959 
2480.457376  	0.011085 
2482.386192  	0.010997 
2484.315008  	0.011080 
2486.243824  	0.011230 
2488.172640  	0.011095 
2490.101456  	0.011075 
2492.030272  	0.011299 
2493.959088  	0.011209 
2495.887904  	0.010991 
2497.816720  	0.011162 
2499.745536  	0.011305 
2501.674352  	0.011417 
2503.603168  	0.011413 
2505.531984  	0.011445 
2507.460800  	0.011400 
2509.389616  	0.011236 
2511.318432  	0.011174 
2513.247248  	0.011411 
2515.176064  	0.011605 
2517.104880  	0.011855 
2519.033696  	0.011867 
2520.962512  	0.011759 
2522.891328  	0.012034 
2524.820144  	0.012113 
2526.748960  	0.012027 
2528.677776  	0.012187 
2530.606592  	0.012090 
2532.535408  	0.012056 
2534.464224  	0.012287 
2536.393040  	0.012318 
2538.321856  	0.012034 
2540.250672  	0.012219 
2542.179488  	0.012491 
2544.108304  	0.012569 
2546.037120  	0.012493 
2547.965936  	0.012872 
2549.894752  	0.013104 
2551.823568  	0.013034 
2553.752384  	0.013036 
2555.681200  	0.013156 
2557.610016  	0.013175 
2559.538832  	0.013153 
2561.467648  	0.013143 
2563.396464  	0.013463 
2565.325280  	0.013782 
2567.254096  	0.013699 
2569.182912  	0.013470 
2571.111728  	0.013440 
2573.040544  	0.013304 
2574.969360  	0.013217 
2576.898176  	0.013547 
2578.826992  	0.013932 
2580.755808  	0.013849 
2582.684624  	0.013824 
2584.613440  	0.013879 
2586.542256  	0.014162 
2588.471072  	0.014294 
2590.399888  	0.014138 
2592.328704  	0.014143 
2594.257520  	0.014438 
2596.186336  	0.014590 
2598.115152  	0.014622 
2600.043968  	0.014497 
2601.972784  	0.014506 
2603.901600  	0.014755 
2605.830416  	0.014942 
2607.759232  	0.014824 
2609.688048  	0.014829 
2611.616864  	0.014902 
2613.545680  	0.015094 
2615.474496  	0.015159 
2617.403312  	0.015159 
2619.332128  	0.015363 
2621.260944  	0.015535 
2623.189760  	0.015470 
2625.118576  	0.015506 
2627.047392  	0.015583 
2628.976208  	0.015863 
2630.905024  	0.015969 
2632.833840  	0.016039 
2634.762656  	0.016154 
2636.691472  	0.016101 
2638.620288  	0.016129 
2640.549104  	0.016266 
2642.477920  	0.016264 
2644.406736  	0.016315 
2646.335552  	0.016525 
2648.264368  	0.016669 
2650.193184  	0.016674 
2652.122000  	0.016787 
2654.050816  	0.016923 
2655.979632  	0.016858 
2657.908448  	0.016928 
2659.837264  	0.017036 
2661.766080  	0.016983 
2663.694896  	0.016988 
2665.623712  	0.016964 
2667.552528  	0.016933 
2669.481344  	0.017086 
2671.410160  	0.017303 
2673.338976  	0.017451 
2675.267792  	0.017560 
2677.196608  	0.017649 
2679.125424  	0.017823 
2681.054240  	0.017803 
2682.983056  	0.017759 
2684.911872  	0.017911 
2686.840688  	0.018021 
2688.769504  	0.018045 
2690.698320  	0.018098 
2692.627136  	0.018240 
2694.555952  	0.018405 
2696.484768  	0.018367 
2698.413584  	0.018360 
2700.342400  	0.018331 
2702.271216  	0.018535 
2704.200032  	0.018817 
2706.128848  	0.018955 
2708.057664  	0.019101 
2709.986480  	0.019116 
2711.915296  	0.019050 
2713.844112  	0.019164 
2715.772928  	0.019464 
2717.701744  	0.019726 
2719.630560  	0.019834 
2721.559376  	0.019820 
2723.488192  	0.019833 
2725.417008  	0.020004 
2727.345824  	0.020087 
2729.274640  	0.020064 
2731.203456  	0.020143 
2733.132272  	0.020328 
2735.061088  	0.020469 
2736.989904  	0.020582 
2738.918720  	0.020662 
2740.847536  	0.020643 
2742.776352  	0.020745 
2744.705168  	0.021012 
2746.633984  	0.021220 
2748.562800  	0.021320 
2750.491616  	0.021316 
2752.420432  	0.021280 
2754.349248  	0.021257 
2756.278064  	0.021327 
2758.206880  	0.021466 
2760.135696  	0.021775 
2762.064512  	0.021813 
2763.993328  	0.021733 
2765.922144  	0.021642 
2767.850960  	0.021577 
2769.779776  	0.021658 
2771.708592  	0.021774 
2773.637408  	0.021865 
2775.566224  	0.021951 
2777.495040  	0.021954 
2779.423856  	0.022062 
2781.352672  	0.022268 
2783.281488  	0.022414 
2785.210304  	0.022405 
2787.139120  	0.022526 
2789.067936  	0.022664 
2790.996752  	0.022691 
2792.925568  	0.022833 
2794.854384  	0.022979 
2796.783200  	0.023050 
2798.712016  	0.023071 
2800.640832  	0.023107 
2802.569648  	0.023315 
2804.498464  	0.023468 
2806.427280  	0.023575 
2808.356096  	0.023658 
2810.284912  	0.023676 
2812.213728  	0.023725 
2814.142544  	0.023904 
2816.071360  	0.024167 
2818.000176  	0.024194 
2819.928992  	0.024237 
2821.857808  	0.024423 
2823.786624  	0.024496 
2825.715440  	0.024513 
2827.644256  	0.024502 
2829.573072  	0.024647 
2831.501888  	0.024824 
2833.430704  	0.024961 
2835.359520  	0.025078 
2837.288336  	0.025178 
2839.217152  	0.025332 
2841.145968  	0.025394 
2843.074784  	0.025498 
2845.003600  	0.025814 
2846.932416  	0.026188 
2848.861232  	0.026482 
2850.790048  	0.026707 
2852.718864  	0.026931 
2854.647680  	0.027169 
2856.576496  	0.027449 
2858.505312  	0.027746 
2860.434128  	0.028232 
2862.362944  	0.028672 
2864.291760  	0.029167 
2866.220576  	0.029685 
2868.149392  	0.030269 
2870.078208  	0.030882 
2872.007024  	0.031380 
2873.935840  	0.031763 
2875.864656  	0.032358 
2877.793472  	0.033213 
2879.722288  	0.034070 
2881.651104  	0.034849 
2883.579920  	0.035409 
2885.508736  	0.035783 
2887.437552  	0.036049 
2889.366368  	0.036306 
2891.295184  	0.036615 
2893.224000  	0.036881 
2895.152816  	0.037048 
2897.081632  	0.037120 
2899.010448  	0.037948 
2900.939264  	0.039032 
2902.868080  	0.038891 
2904.796896  	0.038497 
2906.725712  	0.038292 
2908.654528  	0.038307 
2910.583344  	0.038764 
2912.512160  	0.039140 
2914.440976  	0.039210 
2916.369792  	0.039218 
2918.298608  	0.039546 
2920.227424  	0.040108 
2922.156240  	0.040606 
2924.085056  	0.040736 
2926.013872  	0.040850 
2927.942688  	0.041149 
2929.871504  	0.041511 
2931.800320  	0.041857 
2933.729136  	0.042093 
2935.657952  	0.042141 
2937.586768  	0.042454 
2939.515584  	0.042689 
2941.444400  	0.043031 
2943.373216  	0.043618 
2945.302032  	0.043922 
2947.230848  	0.043956 
2949.159664  	0.044193 
2951.088480  	0.044429 
2953.017296  	0.044880 
2954.946112  	0.045259 
2956.874928  	0.045410 
2958.803744  	0.045488 
2960.732560  	0.045525 
2962.661376  	0.045790 
2964.590192  	0.046062 
2966.519008  	0.046320 
2968.447824  	0.046419 
2970.376640  	0.046477 
2972.305456  	0.046311 
2974.234272  	0.045879 
2976.163088  	0.045631 
2978.091904  	0.045471 
2980.020720  	0.045222 
2981.949536  	0.044938 
2983.878352  	0.044848 
2985.807168  	0.045133 
2987.735984  	0.045640 
2989.664800  	0.045296 
2991.593616  	0.043848 
2993.522432  	0.043043 
2995.451248  	0.042926 
2997.380064  	0.042619 
2999.308880  	0.042091 
3001.237696  	0.041730 
3003.166512  	0.041391 
3005.095328  	0.040732 
3007.024144  	0.040284 
3008.952960  	0.039842 
3010.881776  	0.039435 
3012.810592  	0.039070 
3014.739408  	0.038667 
3016.668224  	0.038423 
3018.597040  	0.038094 
3020.525856  	0.037605 
3022.454672  	0.037402 
3024.383488  	0.037421 
3026.312304  	0.037182 
3028.241120  	0.036912 
3030.169936  	0.036576 
3032.098752  	0.036556 
3034.027568  	0.036443 
3035.956384  	0.036275 
3037.885200  	0.036330 
3039.814016  	0.036555 
3041.742832  	0.036729 
3043.671648  	0.036722 
3045.600464  	0.036784 
3047.529280  	0.037085 
3049.458096  	0.037275 
3051.386912  	0.037143 
3053.315728  	0.037244 
3055.244544  	0.037672 
3057.173360  	0.038051 
3059.102176  	0.038176 
3061.030992  	0.038393 
3062.959808  	0.038769 
3064.888624  	0.039051 
3066.817440  	0.039453 
3068.746256  	0.039790 
3070.675072  	0.039942 
3072.603888  	0.040301 
3074.532704  	0.040773 
3076.461520  	0.041101 
3078.390336  	0.041269 
3080.319152  	0.041575 
3082.247968  	0.041994 
3084.176784  	0.042396 
3086.105600  	0.042600 
3088.034416  	0.042812 
3089.963232  	0.043291 
3091.892048  	0.043693 
3093.820864  	0.044068 
3095.749680  	0.044485 
3097.678496  	0.044556 
3099.607312  	0.044743 
3101.536128  	0.045004 
3103.464944  	0.045387 
3105.393760  	0.045853 
3107.322576  	0.046376 
3109.251392  	0.046737 
3111.180208  	0.046894 
3113.109024  	0.047038 
3115.037840  	0.047151 
3116.966656  	0.047424 
3118.895472  	0.047709 
3120.824288  	0.047930 
3122.753104  	0.048319 
3124.681920  	0.048628 
3126.610736  	0.048748 
3128.539552  	0.049057 
3130.468368  	0.049238 
3132.397184  	0.049344 
3134.326000  	0.049676 
3136.254816  	0.049848 
3138.183632  	0.050115 
3140.112448  	0.050187 
3142.041264  	0.050359 
3143.970080  	0.050745 
3145.898896  	0.050894 
3147.827712  	0.050994 
3149.756528  	0.051294 
3151.685344  	0.051719 
3153.614160  	0.052083 
3155.542976  	0.052223 
3157.471792  	0.052412 
3159.400608  	0.052867 
3161.329424  	0.053166 
3163.258240  	0.053492 
3165.187056  	0.053859 
3167.115872  	0.054074 
3169.044688  	0.054139 
3170.973504  	0.054212 
3172.902320  	0.054440 
3174.831136  	0.054695 
3176.759952  	0.054873 
3178.688768  	0.055239 
3180.617584  	0.055452 
3182.546400  	0.055215 
3184.475216  	0.055310 
3186.404032  	0.055553 
3188.332848  	0.055655 
3190.261664  	0.055919 
3192.190480  	0.055941 
3194.119296  	0.055796 
3196.048112  	0.055803 
3197.976928  	0.056057 
3199.905744  	0.056200 
3201.834560  	0.056088 
3203.763376  	0.055995 
3205.692192  	0.056036 
3207.621008  	0.055950 
3209.549824  	0.055711 
3211.478640  	0.055611 
3213.407456  	0.055605 
3215.336272  	0.055692 
3217.265088  	0.055566 
3219.193904  	0.055206 
3221.122720  	0.054841 
3223.051536  	0.054661 
3224.980352  	0.054556 
3226.909168  	0.054412 
3228.837984  	0.054205 
3230.766800  	0.054251 
3232.695616  	0.054405 
3234.624432  	0.054241 
3236.553248  	0.054070 
3238.482064  	0.053951 
3240.410880  	0.053856 
3242.339696  	0.053866 
3244.268512  	0.053715 
3246.197328  	0.053675 
3248.126144  	0.053745 
3250.054960  	0.053868 
3251.983776  	0.053912 
3253.912592  	0.053877 
3255.841408  	0.053911 
3257.770224  	0.054110 
3259.699040  	0.054059 
3261.627856  	0.054011 
3263.556672  	0.054141 
3265.485488  	0.054197 
3267.414304  	0.054218 
3269.343120  	0.054426 
3271.271936  	0.054737 
3273.200752  	0.055032 
3275.129568  	0.055038 
3277.058384  	0.055011 
3278.987200  	0.055224 
3280.916016  	0.055328 
3282.844832  	0.055395 
3284.773648  	0.055524 
3286.702464  	0.055682 
3288.631280  	0.055952 
3290.560096  	0.056208 
3292.488912  	0.056354 
3294.417728  	0.056423 
3296.346544  	0.056434 
3298.275360  	0.056435 
3300.204176  	0.056804 
3302.132992  	0.057066 
3304.061808  	0.057327 
3305.990624  	0.057767 
3307.919440  	0.057862 
3309.848256  	0.057792 
3311.777072  	0.057816 
3313.705888  	0.058115 
3315.634704  	0.058641 
3317.563520  	0.058926 
3319.492336  	0.058974 
3321.421152  	0.058998 
3323.349968  	0.059186 
3325.278784  	0.059467 
3327.207600  	0.059508 
3329.136416  	0.059502 
3331.065232  	0.059546 
3332.994048  	0.059690 
3334.922864  	0.059719 
3336.851680  	0.059699 
3338.780496  	0.059710 
3340.709312  	0.059587 
3342.638128  	0.059551 
3344.566944  	0.059591 
3346.495760  	0.059518 
3348.424576  	0.059287 
3350.353392  	0.059022 
3352.282208  	0.058927 
3354.211024  	0.058974 
3356.139840  	0.058779 
3358.068656  	0.058401 
3359.997472  	0.057998 
3361.926288  	0.057677 
3363.855104  	0.057595 
3365.783920  	0.057549 
3367.712736  	0.057449 
3369.641552  	0.057100 
3371.570368  	0.056787 
3373.499184  	0.056590 
3375.428000  	0.056262 
3377.356816  	0.056050 
3379.285632  	0.055800 
3381.214448  	0.055624 
3383.143264  	0.055488 
3385.072080  	0.055211 
3387.000896  	0.054945 
3388.929712  	0.054715 
3390.858528  	0.054429 
3392.787344  	0.054193 
3394.716160  	0.053858 
3396.644976  	0.053583 
3398.573792  	0.053398 
3400.502608  	0.053006 
3402.431424  	0.052649 
3404.360240  	0.052442 
3406.289056  	0.052255 
3408.217872  	0.051915 
3410.146688  	0.051503 
3412.075504  	0.051490 
3414.004320  	0.051428 
3415.933136  	0.050987 
3417.861952  	0.050597 
3419.790768  	0.050359 
3421.719584  	0.050025 
3423.648400  	0.049534 
3425.577216  	0.049403 
3427.506032  	0.049252 
3429.434848  	0.048800 
3431.363664  	0.048624 
3433.292480  	0.048425 
3435.221296  	0.048080 
3437.150112  	0.047705 
3439.078928  	0.047423 
3441.007744  	0.047099 
3442.936560  	0.047023 
3444.865376  	0.046620 
3446.794192  	0.045833 
3448.723008  	0.045616 
3450.651824  	0.045248 
3452.580640  	0.044766 
3454.509456  	0.044560 
3456.438272  	0.044330 
3458.367088  	0.044141 
3460.295904  	0.044011 
3462.224720  	0.043565 
3464.153536  	0.043024 
3466.082352  	0.042647 
3468.011168  	0.042316 
3469.939984  	0.041983 
3471.868800  	0.041520 
3473.797616  	0.041124 
3475.726432  	0.040703 
3477.655248  	0.040127 
3479.584064  	0.039635 
3481.512880  	0.039252 
3483.441696  	0.038775 
3485.370512  	0.038353 
3487.299328  	0.038001 
3489.228144  	0.037706 
3491.156960  	0.037134 
3493.085776  	0.036602 
3495.014592  	0.036186 
3496.943408  	0.035938 
3498.872224  	0.035436 
3500.801040  	0.034807 
3502.729856  	0.034345 
3504.658672  	0.034033 
3506.587488  	0.033526 
3508.516304  	0.033077 
3510.445120  	0.032915 
3512.373936  	0.032884 
3514.302752  	0.032704 
3516.231568  	0.032265 
3518.160384  	0.031763 
3520.089200  	0.031461 
3522.018016  	0.031102 
3523.946832  	0.030718 
3525.875648  	0.030430 
3527.804464  	0.030138 
3529.733280  	0.029996 
3531.662096  	0.029729 
3533.590912  	0.029314 
3535.519728  	0.028959 
3537.448544  	0.028819 
3539.377360  	0.028602 
3541.306176  	0.028053 
3543.234992  	0.027475 
3545.163808  	0.027103 
3547.092624  	0.026776 
3549.021440  	0.026333 
3550.950256  	0.025972 
3552.879072  	0.025960 
3554.807888  	0.026144 
3556.736704  	0.025955 
3558.665520  	0.025354 
3560.594336  	0.025053 
3562.523152  	0.024739 
3564.451968  	0.023884 
3566.380784  	0.022929 
3568.309600  	0.023000 
3570.238416  	0.023238 
3572.167232  	0.022927 
3574.096048  	0.022579 
3576.024864  	0.022350 
3577.953680  	0.021951 
3579.882496  	0.021528 
3581.811312  	0.021413 
3583.740128  	0.020947 
3585.668944  	0.019852 
3587.597760  	0.019173 
3589.526576  	0.019295 
3591.455392  	0.018951 
3593.384208  	0.018537 
3595.313024  	0.018203 
3597.241840  	0.017861 
3599.170656  	0.017334 
3601.099472  	0.017072 
3603.028288  	0.017084 
3604.957104  	0.016526 
3606.885920  	0.015463 
3608.814736  	0.015207 
3610.743552  	0.014886 
3612.672368  	0.014088 
3614.601184  	0.013852 
3616.530000  	0.013402 
3618.458816  	0.012798 
3620.387632  	0.012840 
3622.316448  	0.013064 
3624.245264  	0.012940 
3626.174080  	0.011879 
3628.102896  	0.010348 
3630.031712  	0.011032 
3631.960528  	0.011669 
3633.889344  	0.011217 
3635.818160  	0.010928 
3637.746976  	0.010937 
3639.675792  	0.011156 
3641.604608  	0.010864 
3643.533424  	0.010229 
3645.462240  	0.008982 
3647.391056  	0.007644 
3649.319872  	0.007123 
3651.248688  	0.008592 
3653.177504  	0.009615 
3655.106320  	0.009241 
3657.035136  	0.009391 
3658.963952  	0.009532 
3660.892768  	0.009041 
3662.821584  	0.008816 
3664.750400  	0.008556 
3666.679216  	0.007881 
3668.608032  	0.006569 
3670.536848  	0.006412 
3672.465664  	0.006981 
3674.394480  	0.006012 
3676.323296  	0.006641 
3678.252112  	0.006979 
3680.180928  	0.006692 
3682.109744  	0.007017 
3684.038560  	0.007074 
3685.967376  	0.006107 
3687.896192  	0.004708 
3689.825008  	0.004540 
3691.753824  	0.005280 
3693.682640  	0.005790 
3695.611456  	0.005633 
3697.540272  	0.005175 
3699.469088  	0.004405 
3701.397904  	0.004266 
3703.326720  	0.004591 
3705.255536  	0.004417 
3707.184352  	0.003634 
3709.113168  	0.002677 
3711.041984  	0.002224 
3712.970800  	0.003150 
3714.899616  	0.003868 
3716.828432  	0.003672 
3718.757248  	0.003138 
3720.686064  	0.002642 
3722.614880  	0.002564 
3724.543696  	0.002589 
3726.472512  	0.002564 
3728.401328  	0.002630 
3730.330144  	0.001713 
3732.258960  	0.000814 
3734.187776  	0.000660 
3736.116592  	0.001552 
3738.045408  	0.002272 
3739.974224  	0.002172 
3741.903040  	0.001826 
3743.831856  	0.001604 
3745.760672  	0.002403 
3747.689488  	0.001735 
3749.618304  	0.000591 
3751.547120  	0.001180 
3753.475936  	0.002832 
3755.404752  	0.003045 
3757.333568  	0.002502 
3759.262384  	0.002595 
3761.191200  	0.003513 
3763.120016  	0.003575 
3765.048832  	0.003056 
3766.977648  	0.003099 
3768.906464  	0.003031 
3770.835280  	0.003543 
3772.764096  	0.004040 
3774.692912  	0.003985 
3776.621728  	0.003500 
3778.550544  	0.003035 
3780.479360  	0.003418 
3782.408176  	0.003555 
3784.336992  	0.003213 
3786.265808  	0.003454 
3788.194624  	0.003729 
3790.123440  	0.003761 
3792.052256  	0.003689 
3793.981072  	0.003281 
3795.909888  	0.002713 
3797.838704  	0.002786 
3799.767520  	0.002182 
3801.696336  	0.002225 
3803.625152  	0.002879 
3805.553968  	0.002378 
3807.482784  	0.002721 
3809.411600  	0.003609 
3811.340416  	0.003797 
3813.269232  	0.003327 
3815.198048  	0.002488 
3817.126864  	0.002635 
3819.055680  	0.001822 
3820.984496  	0.001546 
3822.913312  	0.003172 
3824.842128  	0.003206 
3826.770944  	0.003017 
3828.699760  	0.003346 
3830.628576  	0.002942 
3832.557392  	0.002733 
3834.486208  	0.002489 
3836.415024  	0.001876 
3838.343840  	0.001919 
3840.272656  	0.002248 
3842.201472  	0.002630 
3844.130288  	0.003007 
3846.059104  	0.003689 
3847.987920  	0.003654 
3849.916736  	0.002765 
3851.845552  	0.001263 
3853.774368  	0.001826 
3855.703184  	0.003235 
3857.632000  	0.003312 
3859.560816  	0.003262 
3861.489632  	0.002905 
3863.418448  	0.002681 
3865.347264  	0.002904 
3867.276080  	0.002747 
3869.204896  	0.002158 
3871.133712  	0.003065 
3873.062528  	0.003047 
3874.991344  	0.003249 
3876.920160  	0.003522 
3878.848976  	0.002931 
3880.777792  	0.002887 
3882.706608  	0.003377 
3884.635424  	0.003031 
3886.564240  	0.003378 
3888.493056  	0.003497 
3890.421872  	0.002989 
3892.350688  	0.003140 
3894.279504  	0.003471 
3896.208320  	0.003561 
3898.137136  	0.003092 
3900.065952  	0.002739 
3901.994768  	0.002620 
3903.923584  	0.002784 
3905.852400  	0.003512 
3907.781216  	0.003810 
3909.710032  	0.003884 
3911.638848  	0.004020 
3913.567664  	0.003805 
3915.496480  	0.003451 
3917.425296  	0.003616 
3919.354112  	0.003792 
3921.282928  	0.003810 
3923.211744  	0.003615 
3925.140560  	0.003585 
3927.069376  	0.003702 
3928.998192  	0.003550 
3930.927008  	0.003488 
3932.855824  	0.003641 
3934.784640  	0.003876 
3936.713456  	0.004063 
3938.642272  	0.004063 
3940.571088  	0.003820 
3942.499904  	0.003730 
3944.428720  	0.004044 
3946.357536  	0.004022 
3948.286352  	0.003830 
3950.215168  	0.003766 
3952.143984  	0.003817 
3954.072800  	0.003902 
3956.001616  	0.003906 
3957.930432  	0.004017 
3959.859248  	0.004144 
3961.788064  	0.003992 
3963.716880  	0.003980 
3965.645696  	0.004043 
3967.574512  	0.004222 
3969.503328  	0.004169 
3971.432144  	0.004006 
3973.360960  	0.003929 
3975.289776  	0.004050 
3977.218592  	0.004144 
3979.147408  	0.004223 
3981.076224  	0.004063 
3983.005040  	0.004039 
3984.933856  	0.004181 
3986.862672  	0.004339 
3988.791488  	0.004190 
3990.720304  	0.004084 
3992.649120  	0.004152 
3994.577936  	0.004118 
3996.506752  	0.004013 
3998.435568  	0.004124 
4000.364384  	0.004159 