##TITLE=No Description
##DATA TYPE=INFRARED SPECTRUM
##XUNITS=1/CM
##YUNITS=Abs
399.264912  	0.627289 
401.193728  	0.599355 
403.122544  	0.602453 
405.051360  	0.600479 
406.980176  	0.599350 
408.908992  	0.588167 
410.837808  	0.587906 
412.766624  	0.585132 
414.695440  	0.576375 
416.624256  	0.560942 
418.553072  	0.552233 
420.481888  	0.555742 
422.410704  	0.564964 
424.339520  	0.557927 
426.268336  	0.560645 
428.197152  	0.555595 
430.125968  	0.551875 
432.054784  	0.536479 
433.983600  	0.534186 
435.912416  	0.529159 
437.841232  	0.525566 
439.770048  	0.524952 
441.698864  	0.529577 
443.627680  	0.525591 
445.556496  	0.526334 
447.485312  	0.523909 
449.414128  	0.523255 
451.342944  	0.513158 
453.271760  	0.509722 
455.200576  	0.508282 
457.129392  	0.506711 
459.058208  	0.505770 
460.987024  	0.510703 
462.915840  	0.508526 
464.844656  	0.508784 
466.773472  	0.508482 
468.702288  	0.509394 
470.631104  	0.506625 
472.559920  	0.509724 
474.488736  	0.503569 
476.417552  	0.500832 
478.346368  	0.498633 
480.275184  	0.496742 
482.204000  	0.496806 
484.132816  	0.498981 
486.061632  	0.492425 
487.990448  	0.492428 
489.919264  	0.494579 
491.848080  	0.495950 
493.776896  	0.491356 
495.705712  	0.489420 
497.634528  	0.489039 
499.563344  	0.491120 
501.492160  	0.485055 
503.420976  	0.484619 
505.349792  	0.483466 
507.278608  	0.484542 
509.207424  	0.482403 
511.136240  	0.482620 
513.065056  	0.484615 
514.993872  	0.486155 
516.922688  	0.483127 
518.851504  	0.483889 
520.780320  	0.483728 
522.709136  	0.484324 
524.637952  	0.479843 
526.566768  	0.477899 
528.495584  	0.476542 
530.424400  	0.474580 
532.353216  	0.470002 
534.282032  	0.469469 
536.210848  	0.468132 
538.139664  	0.464927 
540.068480  	0.460324 
541.997296  	0.457713 
543.926112  	0.453215 
545.854928  	0.451285 
547.783744  	0.448678 
549.712560  	0.444301 
551.641376  	0.441137 
553.570192  	0.440305 
555.499008  	0.437209 
557.427824  	0.433761 
559.356640  	0.429683 
561.285456  	0.428245 
563.214272  	0.425721 
565.143088  	0.423339 
567.071904  	0.419883 
569.000720  	0.417045 
570.929536  	0.412454 
572.858352  	0.409567 
574.787168  	0.406790 
576.715984  	0.404585 
578.644800  	0.401792 
580.573616  	0.399331 
582.502432  	0.395891 
584.431248  	0.393488 
586.360064  	0.391703 
588.288880  	0.390307 
590.217696  	0.387725 
592.146512  	0.385076 
594.075328  	0.382103 
596.004144  	0.379906 
597.932960  	0.378749 
599.861776  	0.378276 
601.790592  	0.376396 
603.719408  	0.374646 
605.648224  	0.373374 
607.577040  	0.372597 
609.505856  	0.370909 
611.434672  	0.369051 
613.363488  	0.366209 
615.292304  	0.364192 
617.221120  	0.362649 
619.149936  	0.361600 
621.078752  	0.359234 
623.007568  	0.356905 
624.936384  	0.354834 
626.865200  	0.354094 
628.794016  	0.352613 
630.722832  	0.350368 
632.651648  	0.348470 
634.580464  	0.347475 
636.509280  	0.347297 
638.438096  	0.346951 
640.366912  	0.345764 
642.295728  	0.344557 
644.224544  	0.342135 
646.153360  	0.339826 
648.082176  	0.336853 
650.010992  	0.334249 
651.939808  	0.331145 
653.868624  	0.328263 
655.797440  	0.325023 
657.726256  	0.322537 
659.655072  	0.318601 
661.583888  	0.314888 
663.512704  	0.311724 
665.441520  	0.309541 
667.370336  	0.307370 
669.299152  	0.303359 
671.227968  	0.300219 
673.156784  	0.297971 
675.085600  	0.295516 
677.014416  	0.293576 
678.943232  	0.292099 
680.872048  	0.290299 
682.800864  	0.287583 
684.729680  	0.285564 
686.658496  	0.283631 
688.587312  	0.281959 
690.516128  	0.279725 
692.444944  	0.277828 
694.373760  	0.276330 
696.302576  	0.274937 
698.231392  	0.272257 
700.160208  	0.269525 
702.089024  	0.267022 
704.017840  	0.265605 
705.946656  	0.263362 
707.875472  	0.260557 
709.804288  	0.258314 
711.733104  	0.256923 
713.661920  	0.255118 
715.590736  	0.253713 
717.519552  	0.252498 
719.448368  	0.252043 
721.377184  	0.251503 
723.306000  	0.251011 
725.234816  	0.250190 
727.163632  	0.248509 
729.092448  	0.246073 
731.021264  	0.243910 
732.950080  	0.241655 
734.878896  	0.239419 
736.807712  	0.236836 
738.736528  	0.234962 
740.665344  	0.233414 
742.594160  	0.232177 
744.522976  	0.230473 
746.451792  	0.228906 
748.380608  	0.227516 
750.309424  	0.226361 
752.238240  	0.225042 
754.167056  	0.223874 
756.095872  	0.222538 
758.024688  	0.221184 
759.953504  	0.219896 
761.882320  	0.219567 
763.811136  	0.219167 
765.739952  	0.218212 
767.668768  	0.216545 
769.597584  	0.214234 
771.526400  	0.212845 
773.455216  	0.213542 
775.384032  	0.214093 
777.312848  	0.215237 
779.241664  	0.217012 
781.170480  	0.216936 
783.099296  	0.214270 
785.028112  	0.210364 
786.956928  	0.206011 
788.885744  	0.202287 
790.814560  	0.199353 
792.743376  	0.197189 
794.672192  	0.195340 
796.601008  	0.193936 
798.529824  	0.191912 
800.458640  	0.189407 
802.387456  	0.186412 
804.316272  	0.184658 
806.245088  	0.183543 
808.173904  	0.182269 
810.102720  	0.181067 
812.031536  	0.180324 
813.960352  	0.179644 
815.889168  	0.178994 
817.817984  	0.178036 
819.746800  	0.177009 
821.675616  	0.176251 
823.604432  	0.175417 
825.533248  	0.173992 
827.462064  	0.172384 
829.390880  	0.170912 
831.319696  	0.169588 
833.248512  	0.168212 
835.177328  	0.166619 
837.106144  	0.164420 
839.034960  	0.161903 
840.963776  	0.159460 
842.892592  	0.157437 
844.821408  	0.155137 
846.750224  	0.152689 
848.679040  	0.150927 
850.607856  	0.149690 
852.536672  	0.148470 
854.465488  	0.147228 
856.394304  	0.145993 
858.323120  	0.144974 
860.251936  	0.143868 
862.180752  	0.142493 
864.109568  	0.141109 
866.038384  	0.139852 
867.967200  	0.138780 
869.896016  	0.137615 
871.824832  	0.136312 
873.753648  	0.135207 
875.682464  	0.134661 
877.611280  	0.135050 
879.540096  	0.135517 
881.468912  	0.135295 
883.397728  	0.135098 
885.326544  	0.134879 
887.255360  	0.134114 
889.184176  	0.133504 
891.112992  	0.132970 
893.041808  	0.131364 
894.970624  	0.129121 
896.899440  	0.126950 
898.828256  	0.124486 
900.757072  	0.121922 
902.685888  	0.119504 
904.614704  	0.117762 
906.543520  	0.116943 
908.472336  	0.116981 
910.401152  	0.117512 
912.329968  	0.118476 
914.258784  	0.119540 
916.187600  	0.120561 
918.116416  	0.121119 
920.045232  	0.121102 
921.974048  	0.120406 
923.902864  	0.119386 
925.831680  	0.118229 
927.760496  	0.117111 
929.689312  	0.115998 
931.618128  	0.115392 
933.546944  	0.115025 
935.475760  	0.114475 
937.404576  	0.113874 
939.333392  	0.113674 
941.262208  	0.113968 
943.191024  	0.114755 
945.119840  	0.116448 
947.048656  	0.118610 
948.977472  	0.121531 
950.906288  	0.125188 
952.835104  	0.129192 
954.763920  	0.133194 
956.692736  	0.136797 
958.621552  	0.139735 
960.550368  	0.141421 
962.479184  	0.141923 
964.408000  	0.140826 
966.336816  	0.138078 
968.265632  	0.133690 
970.194448  	0.128433 
972.123264  	0.122281 
974.052080  	0.115771 
975.980896  	0.109418 
977.909712  	0.103360 
979.838528  	0.098129 
981.767344  	0.093900 
983.696160  	0.090815 
985.624976  	0.089137 
987.553792  	0.088860 
989.482608  	0.089623 
991.411424  	0.091581 
993.340240  	0.094447 
995.269056  	0.098415 
997.197872  	0.102549 
999.126688  	0.106569 
1001.055504  	0.110902 
1002.984320  	0.115324 
1004.913136  	0.119519 
1006.841952  	0.123273 
1008.770768  	0.126659 
1010.699584  	0.129468 
1012.628400  	0.131682 
1014.557216  	0.133037 
1016.486032  	0.133884 
1018.414848  	0.134584 
1020.343664  	0.135183 
1022.272480  	0.135581 
1024.201296  	0.136080 
1026.130112  	0.137295 
1028.058928  	0.138365 
1029.987744  	0.137930 
1031.916560  	0.139082 
1033.845376  	0.141641 
1035.774192  	0.145035 
1037.703008  	0.148675 
1039.631824  	0.152532 
1041.560640  	0.157275 
1043.489456  	0.163290 
1045.418272  	0.170627 
1047.347088  	0.179063 
1049.275904  	0.187652 
1051.204720  	0.196415 
1053.133536  	0.203624 
1055.062352  	0.209676 
1056.991168  	0.214617 
1058.919984  	0.216861 
1060.848800  	0.216584 
1062.777616  	0.217444 
1064.706432  	0.218782 
1066.635248  	0.218465 
1068.564064  	0.214452 
1070.492880  	0.210879 
1072.421696  	0.208237 
1074.350512  	0.205796 
1076.279328  	0.203208 
1078.208144  	0.201301 
1080.136960  	0.199285 
1082.065776  	0.197291 
1083.994592  	0.195148 
1085.923408  	0.193062 
1087.852224  	0.190187 
1089.781040  	0.186959 
1091.709856  	0.182425 
1093.638672  	0.177689 
1095.567488  	0.172157 
1097.496304  	0.166475 
1099.425120  	0.160381 
1101.353936  	0.154059 
1103.282752  	0.147163 
1105.211568  	0.140027 
1107.140384  	0.132683 
1109.069200  	0.125248 
1110.998016  	0.118243 
1112.926832  	0.111787 
1114.855648  	0.105414 
1116.784464  	0.098964 
1118.713280  	0.093211 
1120.642096  	0.088113 
1122.570912  	0.083301 
1124.499728  	0.078905 
1126.428544  	0.074916 
1128.357360  	0.071125 
1130.286176  	0.067717 
1132.214992  	0.064818 
1134.143808  	0.062099 
1136.072624  	0.059734 
1138.001440  	0.057416 
1139.930256  	0.055275 
1141.859072  	0.053408 
1143.787888  	0.051552 
1145.716704  	0.049993 
1147.645520  	0.048746 
1149.574336  	0.047714 
1151.503152  	0.046860 
1153.431968  	0.046253 
1155.360784  	0.045942 
1157.289600  	0.046168 
1159.218416  	0.046668 
1161.147232  	0.047331 
1163.076048  	0.047968 
1165.004864  	0.048954 
1166.933680  	0.049975 
1168.862496  	0.051015 
1170.791312  	0.052301 
1172.720128  	0.053522 
1174.648944  	0.054699 
1176.577760  	0.056052 
1178.506576  	0.057602 
1180.435392  	0.059007 
1182.364208  	0.060219 
1184.293024  	0.061626 
1186.221840  	0.063270 
1188.150656  	0.065048 
1190.079472  	0.067109 
1192.008288  	0.069668 
1193.937104  	0.072591 
1195.865920  	0.075991 
1197.794736  	0.079625 
1199.723552  	0.083599 
1201.652368  	0.088036 
1203.581184  	0.092597 
1205.510000  	0.096865 
1207.438816  	0.101393 
1209.367632  	0.105945 
1211.296448  	0.110336 
1213.225264  	0.114415 
1215.154080  	0.117972 
1217.082896  	0.121373 
1219.011712  	0.124307 
1220.940528  	0.126944 
1222.869344  	0.129136 
1224.798160  	0.131017 
1226.726976  	0.132356 
1228.655792  	0.133513 
1230.584608  	0.134025 
1232.513424  	0.134106 
1234.442240  	0.133086 
1236.371056  	0.131514 
1238.299872  	0.129701 
1240.228688  	0.128093 
1242.157504  	0.125115 
1244.086320  	0.120743 
1246.015136  	0.116580 
1247.943952  	0.112780 
1249.872768  	0.108674 
1251.801584  	0.103971 
1253.730400  	0.099133 
1255.659216  	0.094602 
1257.588032  	0.090109 
1259.516848  	0.085707 
1261.445664  	0.081567 
1263.374480  	0.077736 
1265.303296  	0.074061 
1267.232112  	0.070829 
1269.160928  	0.068268 
1271.089744  	0.066435 
1273.018560  	0.065316 
1274.947376  	0.064569 
1276.876192  	0.063863 
1278.805008  	0.063047 
1280.733824  	0.061863 
1282.662640  	0.059976 
1284.591456  	0.057552 
1286.520272  	0.055004 
1288.449088  	0.052976 
1290.377904  	0.051437 
1292.306720  	0.050245 
1294.235536  	0.048870 
1296.164352  	0.046921 
1298.093168  	0.044630 
1300.021984  	0.042371 
1301.950800  	0.040155 
1303.879616  	0.038157 
1305.808432  	0.036556 
1307.737248  	0.035150 
1309.666064  	0.033827 
1311.594880  	0.032950 
1313.523696  	0.032309 
1315.452512  	0.031888 
1317.381328  	0.031884 
1319.310144  	0.032219 
1321.238960  	0.032671 
1323.167776  	0.033353 
1325.096592  	0.033762 
1327.025408  	0.033890 
1328.954224  	0.033690 
1330.883040  	0.033388 
1332.811856  	0.032820 
1334.740672  	0.032155 
1336.669488  	0.031372 
1338.598304  	0.030855 
1340.527120  	0.030708 
1342.455936  	0.030611 
1344.384752  	0.030547 
1346.313568  	0.030866 
1348.242384  	0.031583 
1350.171200  	0.032618 
1352.100016  	0.033856 
1354.028832  	0.035170 
1355.957648  	0.036654 
1357.886464  	0.038157 
1359.815280  	0.039296 
1361.744096  	0.040415 
1363.672912  	0.042062 
1365.601728  	0.043137 
1367.530544  	0.043807 
1369.459360  	0.044590 
1371.388176  	0.044723 
1373.316992  	0.044453 
1375.245808  	0.044284 
1377.174624  	0.043656 
1379.103440  	0.042647 
1381.032256  	0.041694 
1382.961072  	0.040772 
1384.889888  	0.039577 
1386.818704  	0.038358 
1388.747520  	0.037432 
1390.676336  	0.036949 
1392.605152  	0.037400 
1394.533968  	0.037344 
1396.462784  	0.035764 
1398.391600  	0.035474 
1400.320416  	0.036697 
1402.249232  	0.037443 
1404.178048  	0.038396 
1406.106864  	0.039602 
1408.035680  	0.040531 
1409.964496  	0.041118 
1411.893312  	0.041841 
1413.822128  	0.042355 
1415.750944  	0.042432 
1417.679760  	0.041985 
1419.608576  	0.042066 
1421.537392  	0.041611 
1423.466208  	0.040627 
1425.395024  	0.039670 
1427.323840  	0.038300 
1429.252656  	0.036926 
1431.181472  	0.036037 
1433.110288  	0.035610 
1435.039104  	0.035426 
1436.967920  	0.036140 
1438.896736  	0.036761 
1440.825552  	0.036992 
1442.754368  	0.037332 
1444.683184  	0.037297 
1446.612000  	0.037321 
1448.540816  	0.037962 
1450.469632  	0.038305 
1452.398448  	0.038179 
1454.327264  	0.037740 
1456.256080  	0.037169 
1458.184896  	0.037961 
1460.113712  	0.038205 
1462.042528  	0.038067 
1463.971344  	0.038056 
1465.900160  	0.039471 
1467.828976  	0.040518 
1469.757792  	0.041546 
1471.686608  	0.043323 
1473.615424  	0.046977 
1475.544240  	0.049353 
1477.473056  	0.051475 
1479.401872  	0.052401 
1481.330688  	0.052982 
1483.259504  	0.053186 
1485.188320  	0.052605 
1487.117136  	0.051448 
1489.045952  	0.050264 
1490.974768  	0.048841 
1492.903584  	0.047036 
1494.832400  	0.044516 
1496.761216  	0.042016 
1498.690032  	0.039759 
1500.618848  	0.037762 
1502.547664  	0.035655 
1504.476480  	0.033402 
1506.405296  	0.031558 
1508.334112  	0.031365 
1510.262928  	0.030642 
1512.191744  	0.029893 
1514.120560  	0.028908 
1516.049376  	0.028577 
1517.978192  	0.029152 
1519.907008  	0.029271 
1521.835824  	0.031157 
1523.764640  	0.032886 
1525.693456  	0.034235 
1527.622272  	0.035778 
1529.551088  	0.036482 
1531.479904  	0.036205 
1533.408720  	0.035939 
1535.337536  	0.035315 
1537.266352  	0.033245 
1539.195168  	0.031028 
1541.123984  	0.030117 
1543.052800  	0.029512 
1544.981616  	0.028804 
1546.910432  	0.028148 
1548.839248  	0.027212 
1550.768064  	0.027372 
1552.696880  	0.027394 
1554.625696  	0.027725 
1556.554512  	0.027239 
1558.483328  	0.027842 
1560.412144  	0.031963 
1562.340960  	0.033147 
1564.269776  	0.034279 
1566.198592  	0.036561 
1568.127408  	0.038331 
1570.056224  	0.042123 
1571.985040  	0.044878 
1573.913856  	0.045936 
1575.842672  	0.047358 
1577.771488  	0.049373 
1579.700304  	0.049159 
1581.629120  	0.048919 
1583.557936  	0.048833 
1585.486752  	0.049746 
1587.415568  	0.051289 
1589.344384  	0.053701 
1591.273200  	0.056552 
1593.202016  	0.060049 
1595.130832  	0.063467 
1597.059648  	0.066921 
1598.988464  	0.069614 
1600.917280  	0.072004 
1602.846096  	0.073440 
1604.774912  	0.074284 
1606.703728  	0.074105 
1608.632544  	0.073932 
1610.561360  	0.073412 
1612.490176  	0.072915 
1614.418992  	0.072123 
1616.347808  	0.072827 
1618.276624  	0.074739 
1620.205440  	0.076521 
1622.134256  	0.078494 
1624.063072  	0.082787 
1625.991888  	0.086548 
1627.920704  	0.091192 
1629.849520  	0.096317 
1631.778336  	0.100768 
1633.707152  	0.104234 
1635.635968  	0.109780 
1637.564784  	0.115299 
1639.493600  	0.118619 
1641.422416  	0.121517 
1643.351232  	0.123629 
1645.280048  	0.124611 
1647.208864  	0.126595 
1649.137680  	0.127557 
1651.066496  	0.126732 
1652.995312  	0.125873 
1654.924128  	0.127092 
1656.852944  	0.126000 
1658.781760  	0.124937 
1660.710576  	0.123788 
1662.639392  	0.122903 
1664.568208  	0.121763 
1666.497024  	0.120258 
1668.425840  	0.118662 
1670.354656  	0.117979 
1672.283472  	0.117098 
1674.212288  	0.116264 
1676.141104  	0.116396 
1678.069920  	0.116450 
1679.998736  	0.116301 
1681.927552  	0.115901 
1683.856368  	0.116076 
1685.785184  	0.118143 
1687.714000  	0.117590 
1689.642816  	0.117127 
1691.571632  	0.116308 
1693.500448  	0.114747 
1695.429264  	0.112760 
1697.358080  	0.111055 
1699.286896  	0.108477 
1701.215712  	0.106316 
1703.144528  	0.103844 
1705.073344  	0.100696 
1707.002160  	0.097328 
1708.930976  	0.093934 
1710.859792  	0.089984 
1712.788608  	0.085531 
1714.717424  	0.080727 
1716.646240  	0.075587 
1718.575056  	0.070708 
1720.503872  	0.065873 
1722.432688  	0.061117 
1724.361504  	0.056063 
1726.290320  	0.051431 
1728.219136  	0.046821 
1730.147952  	0.042620 
1732.076768  	0.038620 
1734.005584  	0.035292 
1735.934400  	0.032050 
1737.863216  	0.029207 
1739.792032  	0.026273 
1741.720848  	0.024136 
1743.649664  	0.021926 
1745.578480  	0.020078 
1747.507296  	0.018189 
1749.436112  	0.016977 
1751.364928  	0.016392 
1753.293744  	0.015893 
1755.222560  	0.014576 
1757.151376  	0.013986 
1759.080192  	0.013175 
1761.009008  	0.012746 
1762.937824  	0.012769 
1764.866640  	0.012396 
1766.795456  	0.011509 
1768.724272  	0.011289 
1770.653088  	0.010508 
1772.581904  	0.010826 
1774.510720  	0.010902 
1776.439536  	0.010763 
1778.368352  	0.010455 
1780.297168  	0.010506 
1782.225984  	0.010294 
1784.154800  	0.009998 
1786.083616  	0.010028 
1788.012432  	0.009916 
1789.941248  	0.009304 
1791.870064  	0.009432 
1793.798880  	0.009767 
1795.727696  	0.009627 
1797.656512  	0.009124 
1799.585328  	0.008854 
1801.514144  	0.008901 
1803.442960  	0.008993 
1805.371776  	0.008802 
1807.300592  	0.008545 
1809.229408  	0.008171 
1811.158224  	0.008233 
1813.087040  	0.008125 
1815.015856  	0.007870 
1816.944672  	0.007789 
1818.873488  	0.008215 
1820.802304  	0.008298 
1822.731120  	0.008116 
1824.659936  	0.007840 
1826.588752  	0.007965 
1828.517568  	0.007586 
1830.446384  	0.008239 
1832.375200  	0.008409 
1834.304016  	0.008047 
1836.232832  	0.007739 
1838.161648  	0.008190 
1840.090464  	0.008043 
1842.019280  	0.007263 
1843.948096  	0.007171 
1845.876912  	0.007971 
1847.805728  	0.007874 
1849.734544  	0.007974 
1851.663360  	0.007852 
1853.592176  	0.007961 
1855.520992  	0.007841 
1857.449808  	0.007950 
1859.378624  	0.007791 
1861.307440  	0.007680 
1863.236256  	0.007323 
1865.165072  	0.007278 
1867.093888  	0.007209 
1869.022704  	0.007951 
1870.951520  	0.007904 
1872.880336  	0.007820 
1874.809152  	0.007532 
1876.737968  	0.007682 
1878.666784  	0.007371 
1880.595600  	0.007338 
1882.524416  	0.007515 
1884.453232  	0.007597 
1886.382048  	0.007356 
1888.310864  	0.007271 
1890.239680  	0.007497 
1892.168496  	0.007524 
1894.097312  	0.006985 
1896.026128  	0.007350 
1897.954944  	0.007443 
1899.883760  	0.007352 
1901.812576  	0.007009 
1903.741392  	0.007086 
1905.670208  	0.007070 
1907.599024  	0.007084 
1909.527840  	0.006800 
1911.456656  	0.006949 
1913.385472  	0.007114 
1915.314288  	0.007204 
1917.243104  	0.007170 
1919.171920  	0.007528 
1921.100736  	0.007190 
1923.029552  	0.007829 
1924.958368  	0.007769 
1926.887184  	0.007480 
1928.816000  	0.006896 
1930.744816  	0.006886 
1932.673632  	0.006885 
1934.602448  	0.007296 
1936.531264  	0.007267 
1938.460080  	0.006862 
1940.388896  	0.006845 
1942.317712  	0.007033 
1944.246528  	0.006701 
1946.175344  	0.007310 
1948.104160  	0.006632 
1950.032976  	0.006063 
1951.961792  	0.006334 
1953.890608  	0.006637 
1955.819424  	0.006171 
1957.748240  	0.006706 
1959.677056  	0.007245 
1961.605872  	0.007084 
1963.534688  	0.006416 
1965.463504  	0.006756 
1967.392320  	0.005759 
1969.321136  	0.005711 
1971.249952  	0.006589 
1973.178768  	0.007134 
1975.107584  	0.006035 
1977.036400  	0.006643 
1978.965216  	0.009173 
1980.894032  	0.009261 
1982.822848  	0.007020 
1984.751664  	0.007170 
1986.680480  	0.007862 
1988.609296  	0.008408 
1990.538112  	0.008089 
1992.466928  	0.007953 
1994.395744  	0.008239 
1996.324560  	0.008419 
1998.253376  	0.007555 
2000.182192  	0.007672 
2002.111008  	0.007908 
2004.039824  	0.007501 
2005.968640  	0.006473 
2007.897456  	0.006897 
2009.826272  	0.006671 
2011.755088  	0.006342 
2013.683904  	0.007141 
2015.612720  	0.007792 
2017.541536  	0.006693 
2019.470352  	0.006690 
2021.399168  	0.006646 
2023.327984  	0.007902 
2025.256800  	0.007734 
2027.185616  	0.006917 
2029.114432  	0.006992 
2031.043248  	0.008611 
2032.972064  	0.008156 
2034.900880  	0.008797 
2036.829696  	0.008790 
2038.758512  	0.008347 
2040.687328  	0.008028 
2042.616144  	0.007764 
2044.544960  	0.007320 
2046.473776  	0.007695 
2048.402592  	0.007990 
2050.331408  	0.009287 
2052.260224  	0.008887 
2054.189040  	0.008644 
2056.117856  	0.008219 
2058.046672  	0.007981 
2059.975488  	0.007745 
2061.904304  	0.007820 
2063.833120  	0.008732 
2065.761936  	0.008880 
2067.690752  	0.008342 
2069.619568  	0.007868 
2071.548384  	0.007104 
2073.477200  	0.007478 
2075.406016  	0.008369 
2077.334832  	0.009074 
2079.263648  	0.008739 
2081.192464  	0.008734 
2083.121280  	0.009005 
2085.050096  	0.008974 
2086.978912  	0.008855 
2088.907728  	0.008575 
2090.836544  	0.007895 
2092.765360  	0.007692 
2094.694176  	0.007781 
2096.622992  	0.007736 
2098.551808  	0.007542 
2100.480624  	0.007802 
2102.409440  	0.008051 
2104.338256  	0.008533 
2106.267072  	0.008650 
2108.195888  	0.009043 
2110.124704  	0.009389 
2112.053520  	0.009278 
2113.982336  	0.008741 
2115.911152  	0.008677 
2117.839968  	0.008270 
2119.768784  	0.007973 
2121.697600  	0.007870 
2123.626416  	0.007562 
2125.555232  	0.007434 
2127.484048  	0.007820 
2129.412864  	0.007497 
2131.341680  	0.006605 
2133.270496  	0.007230 
2135.199312  	0.008010 
2137.128128  	0.008439 
2139.056944  	0.008562 
2140.985760  	0.006983 
2142.914576  	0.007495 
2144.843392  	0.008166 
2146.772208  	0.009010 
2148.701024  	0.009520 
2150.629840  	0.008784 
2152.558656  	0.006279 
2154.487472  	0.005641 
2156.416288  	0.005510 
2158.345104  	0.006488 
2160.273920  	0.009438 
2162.202736  	0.011726 
2164.131552  	0.012165 
2166.060368  	0.012139 
2167.989184  	0.010213 
2169.918000  	0.008853 
2171.846816  	0.008643 
2173.775632  	0.008888 
2175.704448  	0.009208 
2177.633264  	0.009345 
2179.562080  	0.009396 
2181.490896  	0.009588 
2183.419712  	0.009435 
2185.348528  	0.009987 
2187.277344  	0.009835 
2189.206160  	0.009681 
2191.134976  	0.010392 
2193.063792  	0.011463 
2194.992608  	0.011184 
2196.921424  	0.009784 
2198.850240  	0.009783 
2200.779056  	0.009982 
2202.707872  	0.009919 
2204.636688  	0.010184 
2206.565504  	0.010157 
2208.494320  	0.010364 
2210.423136  	0.009335 
2212.351952  	0.009281 
2214.280768  	0.009486 
2216.209584  	0.009333 
2218.138400  	0.008862 
2220.067216  	0.008980 
2221.996032  	0.009402 
2223.924848  	0.008802 
2225.853664  	0.009020 
2227.782480  	0.009479 
2229.711296  	0.009587 
2231.640112  	0.009720 
2233.568928  	0.009308 
2235.497744  	0.009488 
2237.426560  	0.009369 
2239.355376  	0.009490 
2241.284192  	0.009445 
2243.213008  	0.009296 
2245.141824  	0.009207 
2247.070640  	0.008809 
2248.999456  	0.008537 
2250.928272  	0.008879 
2252.857088  	0.008939 
2254.785904  	0.008787 
2256.714720  	0.009303 
2258.643536  	0.010069 
2260.572352  	0.009818 
2262.501168  	0.009637 
2264.429984  	0.009609 
2266.358800  	0.009852 
2268.287616  	0.010074 
2270.216432  	0.009923 
2272.145248  	0.009555 
2274.074064  	0.009911 
2276.002880  	0.010101 
2277.931696  	0.010494 
2279.860512  	0.010683 
2281.789328  	0.010576 
2283.718144  	0.010414 
2285.646960  	0.010453 
2287.575776  	0.010536 
2289.504592  	0.010450 
2291.433408  	0.010235 
2293.362224  	0.010274 
2295.291040  	0.010367 
2297.219856  	0.010497 
2299.148672  	0.010333 
2301.077488  	0.010194 
2303.006304  	0.010316 
2304.935120  	0.010415 
2306.863936  	0.010421 
2308.792752  	0.010774 
2310.721568  	0.011191 
2312.650384  	0.011266 
2314.579200  	0.010927 
2316.508016  	0.011036 
2318.436832  	0.011297 
2320.365648  	0.011789 
2322.294464  	0.012160 
2324.223280  	0.012037 
2326.152096  	0.011342 
2328.080912  	0.011144 
2330.009728  	0.011230 
2331.938544  	0.011136 
2333.867360  	0.010530 
2335.796176  	0.010338 
2337.724992  	0.010524 
2339.653808  	0.010600 
2341.582624  	0.010840 
2343.511440  	0.011729 
2345.440256  	0.012074 
2347.369072  	0.011255 
2349.297888  	0.010189 
2351.226704  	0.010019 
2353.155520  	0.010519 
2355.084336  	0.010775 
2357.013152  	0.011129 
2358.941968  	0.011282 
2360.870784  	0.011073 
2362.799600  	0.011155 
2364.728416  	0.011373 
2366.657232  	0.011359 
2368.586048  	0.010818 
2370.514864  	0.010816 
2372.443680  	0.010652 
2374.372496  	0.010866 
2376.301312  	0.010894 
2378.230128  	0.010712 
2380.158944  	0.010452 
2382.087760  	0.010089 
2384.016576  	0.009627 
2385.945392  	0.009522 
2387.874208  	0.009481 
2389.803024  	0.009361 
2391.731840  	0.009195 
2393.660656  	0.009285 
2395.589472  	0.009510 
2397.518288  	0.009664 
2399.447104  	0.009601 
2401.375920  	0.009436 
2403.304736  	0.009412 
2405.233552  	0.009380 
2407.162368  	0.009541 
2409.091184  	0.009669 
2411.020000  	0.009563 
2412.948816  	0.009707 
2414.877632  	0.009857 
2416.806448  	0.010107 
2418.735264  	0.010218 
2420.664080  	0.009978 
2422.592896  	0.009728 
2424.521712  	0.009811 
2426.450528  	0.009736 
2428.379344  	0.009587 
2430.308160  	0.009637 
2432.236976  	0.009810 
2434.165792  	0.010088 
2436.094608  	0.010376 
2438.023424  	0.010462 
2439.952240  	0.010527 
2441.881056  	0.010487 
2443.809872  	0.010487 
2445.738688  	0.010505 
2447.667504  	0.010516 
2449.596320  	0.010443 
2451.525136  	0.010392 
2453.453952  	0.010530 
2455.382768  	0.010975 
2457.311584  	0.011073 
2459.240400  	0.010791 
2461.169216  	0.010602 
2463.098032  	0.010572 
2465.026848  	0.010618 
2466.955664  	0.010688 
2468.884480  	0.010665 
2470.813296  	0.010835 
2472.742112  	0.010902 
2474.670928  	0.010785 
2476.599744  	0.010639 
2478.528560  	0.010689 
2480.457376  	0.011047 
2482.386192  	0.011201 
2484.315008  	0.011216 
2486.243824  	0.011238 
2488.172640  	0.011143 
2490.101456  	0.011237 
2492.030272  	0.011317 
2493.959088  	0.011163 
2495.887904  	0.010862 
2497.816720  	0.010907 
2499.745536  	0.011066 
2501.674352  	0.011154 
2503.603168  	0.011136 
2505.531984  	0.011308 
2507.460800  	0.011511 
2509.389616  	0.011324 
2511.318432  	0.010952 
2513.247248  	0.011108 
2515.176064  	0.011297 
2517.104880  	0.011650 
2519.033696  	0.011727 
2520.962512  	0.011562 
2522.891328  	0.011767 
2524.820144  	0.011883 
2526.748960  	0.011802 
2528.677776  	0.011829 
2530.606592  	0.011793 
2532.535408  	0.011880 
2534.464224  	0.012009 
2536.393040  	0.011972 
2538.321856  	0.011805 
2540.250672  	0.011864 
2542.179488  	0.011903 
2544.108304  	0.012022 
2546.037120  	0.012045 
2547.965936  	0.012170 
2549.894752  	0.012217 
2551.823568  	0.012388 
2553.752384  	0.012576 
2555.681200  	0.012592 
2557.610016  	0.012603 
2559.538832  	0.012597 
2561.467648  	0.012593 
2563.396464  	0.012850 
2565.325280  	0.013239 
2567.254096  	0.013361 
2569.182912  	0.013242 
2571.111728  	0.013105 
2573.040544  	0.012835 
2574.969360  	0.012837 
2576.898176  	0.013075 
2578.826992  	0.013433 
2580.755808  	0.013460 
2582.684624  	0.013420 
2584.613440  	0.013305 
2586.542256  	0.013305 
2588.471072  	0.013473 
2590.399888  	0.013510 
2592.328704  	0.013626 
2594.257520  	0.013783 
2596.186336  	0.013926 
2598.115152  	0.014005 
2600.043968  	0.013965 
2601.972784  	0.013938 
2603.901600  	0.013897 
2605.830416  	0.013939 
2607.759232  	0.013838 
2609.688048  	0.013963 
2611.616864  	0.014246 
2613.545680  	0.014361 
2615.474496  	0.014302 
2617.403312  	0.014261 
2619.332128  	0.014428 
2621.260944  	0.014558 
2623.189760  	0.014599 
2625.118576  	0.014630 
2627.047392  	0.014821 
2628.976208  	0.015121 
2630.905024  	0.015132 
2632.833840  	0.015275 
2634.762656  	0.015368 
2636.691472  	0.015310 
2638.620288  	0.015275 
2640.549104  	0.015361 
2642.477920  	0.015431 
2644.406736  	0.015435 
2646.335552  	0.015659 
2648.264368  	0.015843 
2650.193184  	0.015918 
2652.122000  	0.016041 
2654.050816  	0.016117 
2655.979632  	0.016038 
2657.908448  	0.016066 
2659.837264  	0.016083 
2661.766080  	0.016016 
2663.694896  	0.015984 
2665.623712  	0.015938 
2667.552528  	0.015901 
2669.481344  	0.016005 
2671.410160  	0.016179 
2673.338976  	0.016295 
2675.267792  	0.016343 
2677.196608  	0.016432 
2679.125424  	0.016548 
2681.054240  	0.016553 
2682.983056  	0.016542 
2684.911872  	0.016668 
2686.840688  	0.016858 
2688.769504  	0.016947 
2690.698320  	0.016959 
2692.627136  	0.017034 
2694.555952  	0.017078 
2696.484768  	0.017012 
2698.413584  	0.017167 
2700.342400  	0.017296 
2702.271216  	0.017453 
2704.200032  	0.017673 
2706.128848  	0.017757 
2708.057664  	0.017794 
2709.986480  	0.017823 
2711.915296  	0.017838 
2713.844112  	0.017889 
2715.772928  	0.018020 
2717.701744  	0.018215 
2719.630560  	0.018280 
2721.559376  	0.018285 
2723.488192  	0.018342 
2725.417008  	0.018585 
2727.345824  	0.018726 
2729.274640  	0.018657 
2731.203456  	0.018616 
2733.132272  	0.018762 
2735.061088  	0.018979 
2736.989904  	0.019100 
2738.918720  	0.019114 
2740.847536  	0.019137 
2742.776352  	0.019292 
2744.705168  	0.019400 
2746.633984  	0.019469 
2748.562800  	0.019567 
2750.491616  	0.019581 
2752.420432  	0.019622 
2754.349248  	0.019741 
2756.278064  	0.019804 
2758.206880  	0.019782 
2760.135696  	0.019997 
2762.064512  	0.020101 
2763.993328  	0.020028 
2765.922144  	0.019975 
2767.850960  	0.020006 
2769.779776  	0.020087 
2771.708592  	0.020166 
2773.637408  	0.020182 
2775.566224  	0.020251 
2777.495040  	0.020199 
2779.423856  	0.020225 
2781.352672  	0.020376 
2783.281488  	0.020464 
2785.210304  	0.020398 
2787.139120  	0.020504 
2789.067936  	0.020684 
2790.996752  	0.020766 
2792.925568  	0.020940 
2794.854384  	0.021074 
2796.783200  	0.021070 
2798.712016  	0.020979 
2800.640832  	0.021064 
2802.569648  	0.021272 
2804.498464  	0.021374 
2806.427280  	0.021462 
2808.356096  	0.021631 
2810.284912  	0.021805 
2812.213728  	0.021744 
2814.142544  	0.021796 
2816.071360  	0.022050 
2818.000176  	0.022041 
2819.928992  	0.022037 
2821.857808  	0.022225 
2823.786624  	0.022353 
2825.715440  	0.022440 
2827.644256  	0.022506 
2829.573072  	0.022688 
2831.501888  	0.022811 
2833.430704  	0.022841 
2835.359520  	0.022888 
2837.288336  	0.023054 
2839.217152  	0.023223 
2841.145968  	0.023200 
2843.074784  	0.023310 
2845.003600  	0.023597 
2846.932416  	0.023946 
2848.861232  	0.024332 
2850.790048  	0.024504 
2852.718864  	0.024648 
2854.647680  	0.024867 
2856.576496  	0.025238 
2858.505312  	0.025654 
2860.434128  	0.026124 
2862.362944  	0.026613 
2864.291760  	0.027101 
2866.220576  	0.027517 
2868.149392  	0.028106 
2870.078208  	0.028706 
2872.007024  	0.029105 
2873.935840  	0.029482 
2875.864656  	0.030110 
2877.793472  	0.030857 
2879.722288  	0.031642 
2881.651104  	0.032418 
2883.579920  	0.033008 
2885.508736  	0.033329 
2887.437552  	0.033551 
2889.366368  	0.033777 
2891.295184  	0.034122 
2893.224000  	0.034421 
2895.152816  	0.034642 
2897.081632  	0.034716 
2899.010448  	0.035480 
2900.939264  	0.036531 
2902.868080  	0.036182 
2904.796896  	0.035740 
2906.725712  	0.035654 
2908.654528  	0.035659 
2910.583344  	0.035933 
2912.512160  	0.036043 
2914.440976  	0.036035 
2916.369792  	0.036292 
2918.298608  	0.036548 
2920.227424  	0.036879 
2922.156240  	0.037230 
2924.085056  	0.037390 
2926.013872  	0.037641 
2927.942688  	0.038005 
2929.871504  	0.038386 
2931.800320  	0.038559 
2933.729136  	0.038668 
2935.657952  	0.038839 
2937.586768  	0.038994 
2939.515584  	0.039059 
2941.444400  	0.039351 
2943.373216  	0.039798 
2945.302032  	0.040077 
2947.230848  	0.040211 
2949.159664  	0.040359 
2951.088480  	0.040741 
2953.017296  	0.041287 
2954.946112  	0.041591 
2956.874928  	0.041757 
2958.803744  	0.041958 
2960.732560  	0.042040 
2962.661376  	0.042126 
2964.590192  	0.042327 
2966.519008  	0.042780 
2968.447824  	0.043159 
2970.376640  	0.043304 
2972.305456  	0.043046 
2974.234272  	0.042517 
2976.163088  	0.042230 
2978.091904  	0.042054 
2980.020720  	0.041927 
2981.949536  	0.041803 
2983.878352  	0.041847 
2985.807168  	0.042064 
2987.735984  	0.042435 
2989.664800  	0.042216 
2991.593616  	0.040778 
2993.522432  	0.039893 
2995.451248  	0.039574 
2997.380064  	0.039313 
2999.308880  	0.038975 
3001.237696  	0.038367 
3003.166512  	0.037878 
3005.095328  	0.037453 
3007.024144  	0.036983 
3008.952960  	0.036477 
3010.881776  	0.035990 
3012.810592  	0.035606 
3014.739408  	0.035043 
3016.668224  	0.034714 
3018.597040  	0.034447 
3020.525856  	0.034063 
3022.454672  	0.033832 
3024.383488  	0.033581 
3026.312304  	0.033273 
3028.241120  	0.033112 
3030.169936  	0.032881 
3032.098752  	0.032784 
3034.027568  	0.032608 
3035.956384  	0.032424 
3037.885200  	0.032410 
3039.814016  	0.032443 
3041.742832  	0.032628 
3043.671648  	0.032821 
3045.600464  	0.032947 
3047.529280  	0.033034 
3049.458096  	0.033111 
3051.386912  	0.033023 
3053.315728  	0.033115 
3055.244544  	0.033527 
3057.173360  	0.034018 
3059.102176  	0.034182 
3061.030992  	0.034229 
3062.959808  	0.034425 
3064.888624  	0.034692 
3066.817440  	0.035019 
3068.746256  	0.035184 
3070.675072  	0.035303 
3072.603888  	0.035681 
3074.532704  	0.036131 
3076.461520  	0.036401 
3078.390336  	0.036519 
3080.319152  	0.036858 
3082.247968  	0.037332 
3084.176784  	0.037728 
3086.105600  	0.037936 
3088.034416  	0.038132 
3089.963232  	0.038448 
3091.892048  	0.038736 
3093.820864  	0.039060 
3095.749680  	0.039492 
3097.678496  	0.039522 
3099.607312  	0.039768 
3101.536128  	0.040194 
3103.464944  	0.040525 
3105.393760  	0.040760 
3107.322576  	0.040982 
3109.251392  	0.041333 
3111.180208  	0.041620 
3113.109024  	0.041804 
3115.037840  	0.041905 
3116.966656  	0.042168 
3118.895472  	0.042476 
3120.824288  	0.042629 
3122.753104  	0.042959 
3124.681920  	0.043270 
3126.610736  	0.043389 
3128.539552  	0.043573 
3130.468368  	0.043742 
3132.397184  	0.043795 
3134.326000  	0.043914 
3136.254816  	0.044049 
3138.183632  	0.044368 
3140.112448  	0.044575 
3142.041264  	0.044759 
3143.970080  	0.044927 
3145.898896  	0.045031 
3147.827712  	0.045297 
3149.756528  	0.045641 
3151.685344  	0.045947 
3153.614160  	0.046178 
3155.542976  	0.046361 
3157.471792  	0.046526 
3159.400608  	0.046847 
3161.329424  	0.047195 
3163.258240  	0.047462 
3165.187056  	0.047689 
3167.115872  	0.047864 
3169.044688  	0.048061 
3170.973504  	0.048136 
3172.902320  	0.048134 
3174.831136  	0.048317 
3176.759952  	0.048700 
3178.688768  	0.049019 
3180.617584  	0.049114 
3182.546400  	0.048993 
3184.475216  	0.049285 
3186.404032  	0.049490 
3188.332848  	0.049455 
3190.261664  	0.049664 
3192.190480  	0.049688 
3194.119296  	0.049478 
3196.048112  	0.049485 
3197.976928  	0.049756 
3199.905744  	0.049939 
3201.834560  	0.049950 
3203.763376  	0.049982 
3205.692192  	0.049932 
3207.621008  	0.049732 
3209.549824  	0.049484 
3211.478640  	0.049389 
3213.407456  	0.049441 
3215.336272  	0.049610 
3217.265088  	0.049360 
3219.193904  	0.049034 
3221.122720  	0.048882 
3223.051536  	0.048866 
3224.980352  	0.048711 
3226.909168  	0.048457 
3228.837984  	0.048246 
3230.766800  	0.048157 
3232.695616  	0.048360 
3234.624432  	0.048380 
3236.553248  	0.048259 
3238.482064  	0.048220 
3240.410880  	0.048116 
3242.339696  	0.048027 
3244.268512  	0.048049 
3246.197328  	0.048065 
3248.126144  	0.047956 
3250.054960  	0.047892 
3251.983776  	0.047944 
3253.912592  	0.048120 
3255.841408  	0.048184 
3257.770224  	0.048284 
3259.699040  	0.048523 
3261.627856  	0.048621 
3263.556672  	0.048591 
3265.485488  	0.048468 
3267.414304  	0.048558 
3269.343120  	0.048686 
3271.271936  	0.048810 
3273.200752  	0.049036 
3275.129568  	0.049088 
3277.058384  	0.049060 
3278.987200  	0.049232 
3280.916016  	0.049427 
3282.844832  	0.049491 
3284.773648  	0.049526 
3286.702464  	0.049678 
3288.631280  	0.049835 
3290.560096  	0.049904 
3292.488912  	0.050172 
3294.417728  	0.050234 
3296.346544  	0.050309 
3298.275360  	0.050565 
3300.204176  	0.050771 
3302.132992  	0.050853 
3304.061808  	0.051076 
3305.990624  	0.051450 
3307.919440  	0.051515 
3309.848256  	0.051538 
3311.777072  	0.051750 
3313.705888  	0.052061 
3315.634704  	0.052370 
3317.563520  	0.052657 
3319.492336  	0.052810 
3321.421152  	0.052701 
3323.349968  	0.052727 
3325.278784  	0.053083 
3327.207600  	0.053286 
3329.136416  	0.053209 
3331.065232  	0.053003 
3332.994048  	0.053128 
3334.922864  	0.053225 
3336.851680  	0.053152 
3338.780496  	0.053160 
3340.709312  	0.053159 
3342.638128  	0.053075 
3344.566944  	0.052967 
3346.495760  	0.052940 
3348.424576  	0.052922 
3350.353392  	0.052808 
3352.282208  	0.052656 
3354.211024  	0.052591 
3356.139840  	0.052565 
3358.068656  	0.052419 
3359.997472  	0.052108 
3361.926288  	0.051979 
3363.855104  	0.051839 
3365.783920  	0.051742 
3367.712736  	0.051530 
3369.641552  	0.051130 
3371.570368  	0.050827 
3373.499184  	0.050813 
3375.428000  	0.050525 
3377.356816  	0.050171 
3379.285632  	0.050115 
3381.214448  	0.050147 
3383.143264  	0.049986 
3385.072080  	0.049756 
3387.000896  	0.049478 
3388.929712  	0.049271 
3390.858528  	0.048982 
3392.787344  	0.048543 
3394.716160  	0.048250 
3396.644976  	0.048098 
3398.573792  	0.047982 
3400.502608  	0.047757 
3402.431424  	0.047524 
3404.360240  	0.047271 
3406.289056  	0.046997 
3408.217872  	0.046705 
3410.146688  	0.046369 
3412.075504  	0.046491 
3414.004320  	0.046459 
3415.933136  	0.045995 
3417.861952  	0.045598 
3419.790768  	0.045334 
3421.719584  	0.044985 
3423.648400  	0.044697 
3425.577216  	0.044742 
3427.506032  	0.044707 
3429.434848  	0.044161 
3431.363664  	0.043770 
3433.292480  	0.043603 
3435.221296  	0.043472 
3437.150112  	0.043186 
3439.078928  	0.043006 
3441.007744  	0.042811 
3442.936560  	0.042627 
3444.865376  	0.042167 
3446.794192  	0.041692 
3448.723008  	0.041555 
3450.651824  	0.041073 
3452.580640  	0.040444 
3454.509456  	0.040131 
3456.438272  	0.040048 
3458.367088  	0.039743 
3460.295904  	0.039521 
3462.224720  	0.039379 
3464.153536  	0.038974 
3466.082352  	0.038594 
3468.011168  	0.038368 
3469.939984  	0.037963 
3471.868800  	0.037509 
3473.797616  	0.037377 
3475.726432  	0.037014 
3477.655248  	0.036384 
3479.584064  	0.036094 
3481.512880  	0.036037 
3483.441696  	0.035574 
3485.370512  	0.034867 
3487.299328  	0.034531 
3489.228144  	0.034274 
3491.156960  	0.033763 
3493.085776  	0.033244 
3495.014592  	0.032866 
3496.943408  	0.032635 
3498.872224  	0.032247 
3500.801040  	0.031860 
3502.729856  	0.031654 
3504.658672  	0.031330 
3506.587488  	0.030553 
3508.516304  	0.030110 
3510.445120  	0.030259 
3512.373936  	0.030288 
3514.302752  	0.029996 
3516.231568  	0.029516 
3518.160384  	0.029246 
3520.089200  	0.029067 
3522.018016  	0.028734 
3523.946832  	0.028388 
3525.875648  	0.028066 
3527.804464  	0.027763 
3529.733280  	0.027654 
3531.662096  	0.027301 
3533.590912  	0.027004 
3535.519728  	0.026978 
3537.448544  	0.026900 
3539.377360  	0.026528 
3541.306176  	0.026036 
3543.234992  	0.025471 
3545.163808  	0.025113 
3547.092624  	0.025005 
3549.021440  	0.024641 
3550.950256  	0.024268 
3552.879072  	0.024460 
3554.807888  	0.024455 
3556.736704  	0.023899 
3558.665520  	0.023374 
3560.594336  	0.023309 
3562.523152  	0.023009 
3564.451968  	0.022176 
3566.380784  	0.021679 
3568.309600  	0.022191 
3570.238416  	0.022108 
3572.167232  	0.021584 
3574.096048  	0.021151 
3576.024864  	0.020685 
3577.953680  	0.020319 
3579.882496  	0.020173 
3581.811312  	0.019922 
3583.740128  	0.019187 
3585.668944  	0.018371 
3587.597760  	0.018723 
3589.526576  	0.018993 
3591.455392  	0.018144 
3593.384208  	0.017952 
3595.313024  	0.017891 
3597.241840  	0.017379 
3599.170656  	0.016831 
3601.099472  	0.016651 
3603.028288  	0.016433 
3604.957104  	0.015817 
3606.885920  	0.015112 
3608.814736  	0.015299 
3610.743552  	0.014797 
3612.672368  	0.014068 
3614.601184  	0.013737 
3616.530000  	0.012819 
3618.458816  	0.012746 
3620.387632  	0.013572 
3622.316448  	0.013176 
3624.245264  	0.012499 
3626.174080  	0.011400 
3628.102896  	0.010998 
3630.031712  	0.012487 
3631.960528  	0.012002 
3633.889344  	0.011595 
3635.818160  	0.011199 
3637.746976  	0.010779 
3639.675792  	0.010744 
3641.604608  	0.010613 
3643.533424  	0.010110 
3645.462240  	0.008998 
3647.391056  	0.008549 
3649.319872  	0.009459 
3651.248688  	0.010931 
3653.177504  	0.010087 
3655.106320  	0.009296 
3657.035136  	0.010142 
3658.963952  	0.009954 
3660.892768  	0.009561 
3662.821584  	0.009359 
3664.750400  	0.008934 
3666.679216  	0.008167 
3668.608032  	0.007386 
3670.536848  	0.008225 
3672.465664  	0.007903 
3674.394480  	0.007047 
3676.323296  	0.009162 
3678.252112  	0.008606 
3680.180928  	0.008057 
3682.109744  	0.007895 
3684.038560  	0.007658 
3685.967376  	0.006583 
3687.896192  	0.006057 
3689.825008  	0.007034 
3691.753824  	0.007467 
3693.682640  	0.006927 
3695.611456  	0.006308 
3697.540272  	0.006004 
3699.469088  	0.005397 
3701.397904  	0.005806 
3703.326720  	0.006172 
3705.255536  	0.005176 
3707.184352  	0.004212 
3709.113168  	0.003872 
3711.041984  	0.004158 
3712.970800  	0.004852 
3714.899616  	0.004555 
3716.828432  	0.004209 
3718.757248  	0.004083 
3720.686064  	0.003902 
3722.614880  	0.004141 
3724.543696  	0.004214 
3726.472512  	0.004559 
3728.401328  	0.004416 
3730.330144  	0.003175 
3732.258960  	0.002807 
3734.187776  	0.003080 
3736.116592  	0.004796 
3738.045408  	0.004823 
3739.974224  	0.003503 
3741.903040  	0.002371 
3743.831856  	0.003376 
3745.760672  	0.005160 
3747.689488  	0.003124 
3749.618304  	0.002654 
3751.547120  	0.004123 
3753.475936  	0.005130 
3755.404752  	0.004163 
3757.333568  	0.003469 
3759.262384  	0.003882 
3761.191200  	0.004765 
3763.120016  	0.004121 
3765.048832  	0.004010 
3766.977648  	0.004087 
3768.906464  	0.003974 
3770.835280  	0.004808 
3772.764096  	0.004753 
3774.692912  	0.004376 
3776.621728  	0.003863 
3778.550544  	0.003942 
3780.479360  	0.004548 
3782.408176  	0.004144 
3784.336992  	0.004018 
3786.265808  	0.004266 
3788.194624  	0.004369 
3790.123440  	0.004324 
3792.052256  	0.004197 
3793.981072  	0.003854 
3795.909888  	0.003926 
3797.838704  	0.003815 
3799.767520  	0.002994 
3801.696336  	0.004474 
3803.625152  	0.004451 
3805.553968  	0.003323 
3807.482784  	0.004537 
3809.411600  	0.004827 
3811.340416  	0.004371 
3813.269232  	0.003701 
3815.198048  	0.003511 
3817.126864  	0.004017 
3819.055680  	0.002693 
3820.984496  	0.003536 
3822.913312  	0.004795 
3824.842128  	0.003960 
3826.770944  	0.004083 
3828.699760  	0.004120 
3830.628576  	0.003730 
3832.557392  	0.003921 
3834.486208  	0.003377 
3836.415024  	0.002882 
3838.343840  	0.003827 
3840.272656  	0.004295 
3842.201472  	0.004130 
3844.130288  	0.004311 
3846.059104  	0.004404 
3847.987920  	0.003796 
3849.916736  	0.002839 
3851.845552  	0.002163 
3853.774368  	0.004894 
3855.703184  	0.005523 
3857.632000  	0.004454 
3859.560816  	0.003677 
3861.489632  	0.003279 
3863.418448  	0.003566 
3865.347264  	0.004419 
3867.276080  	0.003536 
3869.204896  	0.003445 
3871.133712  	0.004702 
3873.062528  	0.004110 
3874.991344  	0.004518 
3876.920160  	0.003819 
3878.848976  	0.003178 
3880.777792  	0.004188 
3882.706608  	0.004166 
3884.635424  	0.003570 
3886.564240  	0.004638 
3888.493056  	0.004078 
3890.421872  	0.003838 
3892.350688  	0.004561 
3894.279504  	0.004355 
3896.208320  	0.003852 
3898.137136  	0.003702 
3900.065952  	0.003822 
3901.994768  	0.003862 
3903.923584  	0.004409 
3905.852400  	0.004828 
3907.781216  	0.004455 
3909.710032  	0.004212 
3911.638848  	0.004228 
3913.567664  	0.003964 
3915.496480  	0.003828 
3917.425296  	0.004411 
3919.354112  	0.004534 
3921.282928  	0.004525 
3923.211744  	0.004382 
3925.140560  	0.004553 
3927.069376  	0.004250 
3928.998192  	0.003760 
3930.927008  	0.003855 
3932.855824  	0.004510 
3934.784640  	0.004490 
3936.713456  	0.004442 
3938.642272  	0.004447 
3940.571088  	0.004040 
3942.499904  	0.004194 
3944.428720  	0.004402 
3946.357536  	0.004033 
3948.286352  	0.003977 
3950.215168  	0.004154 
3952.143984  	0.004206 
3954.072800  	0.004168 
3956.001616  	0.004053 
3957.930432  	0.004183 
3959.859248  	0.004421 
3961.788064  	0.004352 
3963.716880  	0.004301 
3965.645696  	0.004269 
3967.574512  	0.004397 
3969.503328  	0.004440 
3971.432144  	0.004395 
3973.360960  	0.004358 
3975.289776  	0.004498 
3977.218592  	0.004531 
3979.147408  	0.004555 
3981.076224  	0.004333 
3983.005040  	0.004152 
3984.933856  	0.004184 
3986.862672  	0.004368 
3988.791488  	0.004358 
3990.720304  	0.004347 
3992.649120  	0.004344 
3994.577936  	0.004336 
3996.506752  	0.004357 
3998.435568  	0.004437 
4000.364384  	0.004477 