##TITLE=No Description
##DATA TYPE=INFRARED SPECTRUM
##XUNITS=1/CM
##YUNITS=Abs
399.264912  	0.569423 
401.193728  	0.575505 
403.122544  	0.579719 
405.051360  	0.570967 
406.980176  	0.572852 
408.908992  	0.556050 
410.837808  	0.556897 
412.766624  	0.568033 
414.695440  	0.568871 
416.624256  	0.560708 
418.553072  	0.562373 
420.481888  	0.561526 
422.410704  	0.562617 
424.339520  	0.545039 
426.268336  	0.549484 
428.197152  	0.548690 
430.125968  	0.543312 
432.054784  	0.534482 
433.983600  	0.536912 
435.912416  	0.536136 
437.841232  	0.535290 
439.770048  	0.529734 
441.698864  	0.530108 
443.627680  	0.523757 
445.556496  	0.521914 
447.485312  	0.519594 
449.414128  	0.520032 
451.342944  	0.516663 
453.271760  	0.515610 
455.200576  	0.514436 
457.129392  	0.511496 
459.058208  	0.501169 
460.987024  	0.505982 
462.915840  	0.504767 
464.844656  	0.508824 
466.773472  	0.511348 
468.702288  	0.508621 
470.631104  	0.503292 
472.559920  	0.506344 
474.488736  	0.500821 
476.417552  	0.499916 
478.346368  	0.503785 
480.275184  	0.504872 
482.204000  	0.500916 
484.132816  	0.503491 
486.061632  	0.499621 
487.990448  	0.498615 
489.919264  	0.495406 
491.848080  	0.492015 
493.776896  	0.488271 
495.705712  	0.487900 
497.634528  	0.488795 
499.563344  	0.492253 
501.492160  	0.486927 
503.420976  	0.487176 
505.349792  	0.486479 
507.278608  	0.485887 
509.207424  	0.484484 
511.136240  	0.485875 
513.065056  	0.485072 
514.993872  	0.484886 
516.922688  	0.482288 
518.851504  	0.483464 
520.780320  	0.483208 
522.709136  	0.482856 
524.637952  	0.480028 
526.566768  	0.479525 
528.495584  	0.476708 
530.424400  	0.476289 
532.353216  	0.473114 
534.282032  	0.470440 
536.210848  	0.466763 
538.139664  	0.463320 
540.068480  	0.459980 
541.997296  	0.458281 
543.926112  	0.455337 
545.854928  	0.453930 
547.783744  	0.450153 
549.712560  	0.446349 
551.641376  	0.440887 
553.570192  	0.438186 
555.499008  	0.436375 
557.427824  	0.434164 
559.356640  	0.430659 
561.285456  	0.428485 
563.214272  	0.425926 
565.143088  	0.424884 
567.071904  	0.420469 
569.000720  	0.415319 
570.929536  	0.411184 
572.858352  	0.409637 
574.787168  	0.407945 
576.715984  	0.406271 
578.644800  	0.402864 
580.573616  	0.399728 
582.502432  	0.395933 
584.431248  	0.393639 
586.360064  	0.391764 
588.288880  	0.390242 
590.217696  	0.387938 
592.146512  	0.386061 
594.075328  	0.383277 
596.004144  	0.381251 
597.932960  	0.379460 
599.861776  	0.378036 
601.790592  	0.376723 
603.719408  	0.375745 
605.648224  	0.372902 
607.577040  	0.371771 
609.505856  	0.371124 
611.434672  	0.369756 
613.363488  	0.367287 
615.292304  	0.365470 
617.221120  	0.363774 
619.149936  	0.362818 
621.078752  	0.359980 
623.007568  	0.357469 
624.936384  	0.356224 
626.865200  	0.355454 
628.794016  	0.353456 
630.722832  	0.351480 
632.651648  	0.349734 
634.580464  	0.348501 
636.509280  	0.347810 
638.438096  	0.347199 
640.366912  	0.346130 
642.295728  	0.344813 
644.224544  	0.342183 
646.153360  	0.339702 
648.082176  	0.337008 
650.010992  	0.334903 
651.939808  	0.331586 
653.868624  	0.328144 
655.797440  	0.324865 
657.726256  	0.322388 
659.655072  	0.318594 
661.583888  	0.315153 
663.512704  	0.312144 
665.441520  	0.310070 
667.370336  	0.306634 
669.299152  	0.302336 
671.227968  	0.300236 
673.156784  	0.298254 
675.085600  	0.295517 
677.014416  	0.293481 
678.943232  	0.291833 
680.872048  	0.289793 
682.800864  	0.287584 
684.729680  	0.286036 
686.658496  	0.283967 
688.587312  	0.281813 
690.516128  	0.279509 
692.444944  	0.278125 
694.373760  	0.276553 
696.302576  	0.274936 
698.231392  	0.272651 
700.160208  	0.270287 
702.089024  	0.267603 
704.017840  	0.265885 
705.946656  	0.263559 
707.875472  	0.261030 
709.804288  	0.258725 
711.733104  	0.257117 
713.661920  	0.255241 
715.590736  	0.254337 
717.519552  	0.253327 
719.448368  	0.252613 
721.377184  	0.251927 
723.306000  	0.250958 
725.234816  	0.249933 
727.163632  	0.248825 
729.092448  	0.246500 
731.021264  	0.244409 
732.950080  	0.242583 
734.878896  	0.240016 
736.807712  	0.237342 
738.736528  	0.235605 
740.665344  	0.233660 
742.594160  	0.232354 
744.522976  	0.230874 
746.451792  	0.229273 
748.380608  	0.227841 
750.309424  	0.226965 
752.238240  	0.225928 
754.167056  	0.225033 
756.095872  	0.223641 
758.024688  	0.222148 
759.953504  	0.220610 
761.882320  	0.219945 
763.811136  	0.219490 
765.739952  	0.218600 
767.668768  	0.216972 
769.597584  	0.215115 
771.526400  	0.213914 
773.455216  	0.214493 
775.384032  	0.215110 
777.312848  	0.216227 
779.241664  	0.217794 
781.170480  	0.217401 
783.099296  	0.214845 
785.028112  	0.211128 
786.956928  	0.206762 
788.885744  	0.202818 
790.814560  	0.199745 
792.743376  	0.197854 
794.672192  	0.195787 
796.601008  	0.194367 
798.529824  	0.192620 
800.458640  	0.189874 
802.387456  	0.186768 
804.316272  	0.185032 
806.245088  	0.184026 
808.173904  	0.182828 
810.102720  	0.181670 
812.031536  	0.181053 
813.960352  	0.180361 
815.889168  	0.179511 
817.817984  	0.178957 
819.746800  	0.178056 
821.675616  	0.176675 
823.604432  	0.175519 
825.533248  	0.174366 
827.462064  	0.173255 
829.390880  	0.171868 
831.319696  	0.170127 
833.248512  	0.168424 
835.177328  	0.166997 
837.106144  	0.164788 
839.034960  	0.162133 
840.963776  	0.159713 
842.892592  	0.157881 
844.821408  	0.155822 
846.750224  	0.153470 
848.679040  	0.151548 
850.607856  	0.149949 
852.536672  	0.148552 
854.465488  	0.147473 
856.394304  	0.146487 
858.323120  	0.145441 
860.251936  	0.144263 
862.180752  	0.142791 
864.109568  	0.141416 
866.038384  	0.140348 
867.967200  	0.139212 
869.896016  	0.138016 
871.824832  	0.136764 
873.753648  	0.135674 
875.682464  	0.135076 
877.611280  	0.135497 
879.540096  	0.135886 
881.468912  	0.135754 
883.397728  	0.135732 
885.326544  	0.135243 
887.255360  	0.134444 
889.184176  	0.134017 
891.112992  	0.133413 
893.041808  	0.131689 
894.970624  	0.129442 
896.899440  	0.127193 
898.828256  	0.124593 
900.757072  	0.121990 
902.685888  	0.119735 
904.614704  	0.118010 
906.543520  	0.117067 
908.472336  	0.117132 
910.401152  	0.117815 
912.329968  	0.118852 
914.258784  	0.120035 
916.187600  	0.121030 
918.116416  	0.121553 
920.045232  	0.121557 
921.974048  	0.120814 
923.902864  	0.119893 
925.831680  	0.118707 
927.760496  	0.117461 
929.689312  	0.116368 
931.618128  	0.115848 
933.546944  	0.115501 
935.475760  	0.114952 
937.404576  	0.114394 
939.333392  	0.114184 
941.262208  	0.114391 
943.191024  	0.115071 
945.119840  	0.116692 
947.048656  	0.119019 
948.977472  	0.122037 
950.906288  	0.125858 
952.835104  	0.129952 
954.763920  	0.133778 
956.692736  	0.137302 
958.621552  	0.140262 
960.550368  	0.142101 
962.479184  	0.142635 
964.408000  	0.141337 
966.336816  	0.138521 
968.265632  	0.134136 
970.194448  	0.128732 
972.123264  	0.122493 
974.052080  	0.115981 
975.980896  	0.109470 
977.909712  	0.103475 
979.838528  	0.098525 
981.767344  	0.094225 
983.696160  	0.090978 
985.624976  	0.089378 
987.553792  	0.089330 
989.482608  	0.090145 
991.411424  	0.091994 
993.340240  	0.094813 
995.269056  	0.098817 
997.197872  	0.103064 
999.126688  	0.107136 
1001.055504  	0.111448 
1002.984320  	0.115840 
1004.913136  	0.120107 
1006.841952  	0.123892 
1008.770768  	0.127454 
1010.699584  	0.130331 
1012.628400  	0.132369 
1014.557216  	0.133769 
1016.486032  	0.134848 
1018.414848  	0.135371 
1020.343664  	0.135813 
1022.272480  	0.136304 
1024.201296  	0.136966 
1026.130112  	0.138367 
1028.058928  	0.139479 
1029.987744  	0.138851 
1031.916560  	0.139912 
1033.845376  	0.142560 
1035.774192  	0.145989 
1037.703008  	0.149501 
1039.631824  	0.153117 
1041.560640  	0.157779 
1043.489456  	0.163956 
1045.418272  	0.171388 
1047.347088  	0.179772 
1049.275904  	0.188404 
1051.204720  	0.197196 
1053.133536  	0.204541 
1055.062352  	0.210626 
1056.991168  	0.215270 
1058.919984  	0.217354 
1060.848800  	0.217330 
1062.777616  	0.218528 
1064.706432  	0.220107 
1066.635248  	0.219752 
1068.564064  	0.215546 
1070.492880  	0.211770 
1072.421696  	0.209057 
1074.350512  	0.206722 
1076.279328  	0.204240 
1078.208144  	0.202012 
1080.136960  	0.199822 
1082.065776  	0.198058 
1083.994592  	0.195757 
1085.923408  	0.193389 
1087.852224  	0.190640 
1089.781040  	0.187369 
1091.709856  	0.182644 
1093.638672  	0.177934 
1095.567488  	0.172612 
1097.496304  	0.167226 
1099.425120  	0.161119 
1101.353936  	0.154772 
1103.282752  	0.147815 
1105.211568  	0.140275 
1107.140384  	0.132745 
1109.069200  	0.125470 
1110.998016  	0.118604 
1112.926832  	0.112140 
1114.855648  	0.105803 
1116.784464  	0.099279 
1118.713280  	0.093579 
1120.642096  	0.088595 
1122.570912  	0.083679 
1124.499728  	0.079254 
1126.428544  	0.075193 
1128.357360  	0.071299 
1130.286176  	0.067791 
1132.214992  	0.064848 
1134.143808  	0.062201 
1136.072624  	0.059860 
1138.001440  	0.057661 
1139.930256  	0.055619 
1141.859072  	0.053647 
1143.787888  	0.051579 
1145.716704  	0.049881 
1147.645520  	0.048597 
1149.574336  	0.047494 
1151.503152  	0.046651 
1153.431968  	0.046233 
1155.360784  	0.045997 
1157.289600  	0.046087 
1159.218416  	0.046418 
1161.147232  	0.046997 
1163.076048  	0.047793 
1165.004864  	0.049009 
1166.933680  	0.049991 
1168.862496  	0.051044 
1170.791312  	0.052372 
1172.720128  	0.053615 
1174.648944  	0.054780 
1176.577760  	0.056196 
1178.506576  	0.057697 
1180.435392  	0.059032 
1182.364208  	0.060315 
1184.293024  	0.061673 
1186.221840  	0.063192 
1188.150656  	0.064966 
1190.079472  	0.067035 
1192.008288  	0.069519 
1193.937104  	0.072557 
1195.865920  	0.076017 
1197.794736  	0.079527 
1199.723552  	0.083608 
1201.652368  	0.088071 
1203.581184  	0.092746 
1205.510000  	0.097161 
1207.438816  	0.101589 
1209.367632  	0.106165 
1211.296448  	0.110515 
1213.225264  	0.114721 
1215.154080  	0.118529 
1217.082896  	0.121849 
1219.011712  	0.124438 
1220.940528  	0.127338 
1222.869344  	0.129663 
1224.798160  	0.131409 
1226.726976  	0.132861 
1228.655792  	0.134041 
1230.584608  	0.134612 
1232.513424  	0.134745 
1234.442240  	0.133642 
1236.371056  	0.132087 
1238.299872  	0.130338 
1240.228688  	0.128877 
1242.157504  	0.126056 
1244.086320  	0.121656 
1246.015136  	0.117402 
1247.943952  	0.113518 
1249.872768  	0.109409 
1251.801584  	0.104705 
1253.730400  	0.099780 
1255.659216  	0.095197 
1257.588032  	0.090809 
1259.516848  	0.086386 
1261.445664  	0.082161 
1263.374480  	0.078273 
1265.303296  	0.074566 
1267.232112  	0.071362 
1269.160928  	0.068801 
1271.089744  	0.066900 
1273.018560  	0.065672 
1274.947376  	0.064924 
1276.876192  	0.064212 
1278.805008  	0.063304 
1280.733824  	0.062080 
1282.662640  	0.060156 
1284.591456  	0.057680 
1286.520272  	0.055156 
1288.449088  	0.053156 
1290.377904  	0.051606 
1292.306720  	0.050388 
1294.235536  	0.048965 
1296.164352  	0.046943 
1298.093168  	0.044647 
1300.021984  	0.042373 
1301.950800  	0.040108 
1303.879616  	0.038169 
1305.808432  	0.036604 
1307.737248  	0.035153 
1309.666064  	0.033767 
1311.594880  	0.032792 
1313.523696  	0.032219 
1315.452512  	0.031949 
1317.381328  	0.032030 
1319.310144  	0.032367 
1321.238960  	0.032785 
1323.167776  	0.033409 
1325.096592  	0.033878 
1327.025408  	0.033990 
1328.954224  	0.033769 
1330.883040  	0.033360 
1332.811856  	0.032763 
1334.740672  	0.032124 
1336.669488  	0.031334 
1338.598304  	0.030865 
1340.527120  	0.030827 
1342.455936  	0.030734 
1344.384752  	0.030649 
1346.313568  	0.030961 
1348.242384  	0.031583 
1350.171200  	0.032633 
1352.100016  	0.033879 
1354.028832  	0.035209 
1355.957648  	0.036752 
1357.886464  	0.038204 
1359.815280  	0.039253 
1361.744096  	0.040361 
1363.672912  	0.042185 
1365.601728  	0.043402 
1367.530544  	0.044097 
1369.459360  	0.044849 
1371.388176  	0.045024 
1373.316992  	0.044650 
1375.245808  	0.044373 
1377.174624  	0.043804 
1379.103440  	0.042833 
1381.032256  	0.041820 
1382.961072  	0.040845 
1384.889888  	0.039643 
1386.818704  	0.038355 
1388.747520  	0.037450 
1390.676336  	0.036973 
1392.605152  	0.037330 
1394.533968  	0.037243 
1396.462784  	0.035785 
1398.391600  	0.035426 
1400.320416  	0.036707 
1402.249232  	0.037507 
1404.178048  	0.038367 
1406.106864  	0.039635 
1408.035680  	0.040567 
1409.964496  	0.041272 
1411.893312  	0.042070 
1413.822128  	0.042577 
1415.750944  	0.042499 
1417.679760  	0.041791 
1419.608576  	0.041854 
1421.537392  	0.041591 
1423.466208  	0.040696 
1425.395024  	0.039850 
1427.323840  	0.038439 
1429.252656  	0.036935 
1431.181472  	0.036069 
1433.110288  	0.035626 
1435.039104  	0.035120 
1436.967920  	0.035876 
1438.896736  	0.036917 
1440.825552  	0.037078 
1442.754368  	0.037364 
1444.683184  	0.037327 
1446.612000  	0.037211 
1448.540816  	0.037928 
1450.469632  	0.038360 
1452.398448  	0.038235 
1454.327264  	0.037620 
1456.256080  	0.036715 
1458.184896  	0.037768 
1460.113712  	0.038227 
1462.042528  	0.038154 
1463.971344  	0.038119 
1465.900160  	0.039581 
1467.828976  	0.040702 
1469.757792  	0.041685 
1471.686608  	0.043312 
1473.615424  	0.047044 
1475.544240  	0.049606 
1477.473056  	0.051866 
1479.401872  	0.052753 
1481.330688  	0.053183 
1483.259504  	0.053344 
1485.188320  	0.052788 
1487.117136  	0.051549 
1489.045952  	0.050265 
1490.974768  	0.049048 
1492.903584  	0.047331 
1494.832400  	0.044595 
1496.761216  	0.041990 
1498.690032  	0.039809 
1500.618848  	0.037973 
1502.547664  	0.035856 
1504.476480  	0.033200 
1506.405296  	0.030935 
1508.334112  	0.031170 
1510.262928  	0.030609 
1512.191744  	0.029906 
1514.120560  	0.028872 
1516.049376  	0.028299 
1517.978192  	0.028855 
1519.907008  	0.028940 
1521.835824  	0.030887 
1523.764640  	0.032865 
1525.693456  	0.034160 
1527.622272  	0.035665 
1529.551088  	0.036373 
1531.479904  	0.036105 
1533.408720  	0.035705 
1535.337536  	0.035198 
1537.266352  	0.032974 
1539.195168  	0.030450 
1541.123984  	0.029635 
1543.052800  	0.029202 
1544.981616  	0.028611 
1546.910432  	0.028156 
1548.839248  	0.027219 
1550.768064  	0.027367 
1552.696880  	0.027198 
1554.625696  	0.027402 
1556.554512  	0.026657 
1558.483328  	0.026792 
1560.412144  	0.031721 
1562.340960  	0.033249 
1564.269776  	0.034419 
1566.198592  	0.036786 
1568.127408  	0.038475 
1570.056224  	0.042181 
1571.985040  	0.045070 
1573.913856  	0.046027 
1575.842672  	0.047158 
1577.771488  	0.049389 
1579.700304  	0.049408 
1581.629120  	0.049317 
1583.557936  	0.049412 
1585.486752  	0.050303 
1587.415568  	0.051709 
1589.344384  	0.054166 
1591.273200  	0.056982 
1593.202016  	0.060467 
1595.130832  	0.064033 
1597.059648  	0.067633 
1598.988464  	0.070325 
1600.917280  	0.072654 
1602.846096  	0.074041 
1604.774912  	0.074886 
1606.703728  	0.074749 
1608.632544  	0.074481 
1610.561360  	0.073899 
1612.490176  	0.073431 
1614.418992  	0.072567 
1616.347808  	0.073166 
1618.276624  	0.075300 
1620.205440  	0.077131 
1622.134256  	0.079052 
1624.063072  	0.083501 
1625.991888  	0.087349 
1627.920704  	0.091937 
1629.849520  	0.097169 
1631.778336  	0.101625 
1633.707152  	0.104921 
1635.635968  	0.110375 
1637.564784  	0.116312 
1639.493600  	0.119801 
1641.422416  	0.122713 
1643.351232  	0.124721 
1645.280048  	0.125511 
1647.208864  	0.127499 
1649.137680  	0.128475 
1651.066496  	0.127355 
1652.995312  	0.126248 
1654.924128  	0.128066 
1656.852944  	0.127144 
1658.781760  	0.126091 
1660.710576  	0.124759 
1662.639392  	0.123702 
1664.568208  	0.122802 
1666.497024  	0.121445 
1668.425840  	0.119640 
1670.354656  	0.118833 
1672.283472  	0.118088 
1674.212288  	0.117197 
1676.141104  	0.117477 
1678.069920  	0.117543 
1679.998736  	0.117245 
1681.927552  	0.116790 
1683.856368  	0.116780 
1685.785184  	0.119108 
1687.714000  	0.118653 
1689.642816  	0.118156 
1691.571632  	0.117552 
1693.500448  	0.116002 
1695.429264  	0.113703 
1697.358080  	0.111893 
1699.286896  	0.109103 
1701.215712  	0.107017 
1703.144528  	0.104505 
1705.073344  	0.101175 
1707.002160  	0.097950 
1708.930976  	0.094733 
1710.859792  	0.090843 
1712.788608  	0.086281 
1714.717424  	0.081148 
1716.646240  	0.075797 
1718.575056  	0.070993 
1720.503872  	0.066387 
1722.432688  	0.061608 
1724.361504  	0.056453 
1726.290320  	0.051834 
1728.219136  	0.047123 
1730.147952  	0.042775 
1732.076768  	0.038600 
1734.005584  	0.035117 
1735.934400  	0.032124 
1737.863216  	0.029218 
1739.792032  	0.026231 
1741.720848  	0.024125 
1743.649664  	0.021929 
1745.578480  	0.019928 
1747.507296  	0.017829 
1749.436112  	0.016656 
1751.364928  	0.016269 
1753.293744  	0.015871 
1755.222560  	0.014464 
1757.151376  	0.013918 
1759.080192  	0.013163 
1761.009008  	0.012709 
1762.937824  	0.012802 
1764.866640  	0.012442 
1766.795456  	0.011491 
1768.724272  	0.011256 
1770.653088  	0.010209 
1772.581904  	0.010544 
1774.510720  	0.010905 
1776.439536  	0.010834 
1778.368352  	0.010564 
1780.297168  	0.010539 
1782.225984  	0.010334 
1784.154800  	0.010049 
1786.083616  	0.010192 
1788.012432  	0.009914 
1789.941248  	0.008963 
1791.870064  	0.009043 
1793.798880  	0.009695 
1795.727696  	0.009753 
1797.656512  	0.009338 
1799.585328  	0.008930 
1801.514144  	0.008824 
1803.442960  	0.008879 
1805.371776  	0.008762 
1807.300592  	0.008606 
1809.229408  	0.008146 
1811.158224  	0.008319 
1813.087040  	0.008399 
1815.015856  	0.008106 
1816.944672  	0.007849 
1818.873488  	0.008153 
1820.802304  	0.008298 
1822.731120  	0.008110 
1824.659936  	0.007846 
1826.588752  	0.008048 
1828.517568  	0.007575 
1830.446384  	0.008199 
1832.375200  	0.008350 
1834.304016  	0.008035 
1836.232832  	0.008005 
1838.161648  	0.008356 
1840.090464  	0.008118 
1842.019280  	0.007303 
1843.948096  	0.007116 
1845.876912  	0.007879 
1847.805728  	0.007811 
1849.734544  	0.008088 
1851.663360  	0.007940 
1853.592176  	0.007901 
1855.520992  	0.007859 
1857.449808  	0.008167 
1859.378624  	0.008095 
1861.307440  	0.008032 
1863.236256  	0.007690 
1865.165072  	0.007393 
1867.093888  	0.007160 
1869.022704  	0.007742 
1870.951520  	0.007873 
1872.880336  	0.007888 
1874.809152  	0.007784 
1876.737968  	0.007913 
1878.666784  	0.007665 
1880.595600  	0.007863 
1882.524416  	0.008060 
1884.453232  	0.007906 
1886.382048  	0.007424 
1888.310864  	0.007258 
1890.239680  	0.007659 
1892.168496  	0.007955 
1894.097312  	0.007552 
1896.026128  	0.007710 
1897.954944  	0.007675 
1899.883760  	0.007804 
1901.812576  	0.007443 
1903.741392  	0.007329 
1905.670208  	0.007484 
1907.599024  	0.007569 
1909.527840  	0.007248 
1911.456656  	0.007424 
1913.385472  	0.007875 
1915.314288  	0.008324 
1917.243104  	0.007807 
1919.171920  	0.007659 
1921.100736  	0.007619 
1923.029552  	0.008023 
1924.958368  	0.007720 
1926.887184  	0.007983 
1928.816000  	0.007879 
1930.744816  	0.007553 
1932.673632  	0.007083 
1934.602448  	0.007586 
1936.531264  	0.008146 
1938.460080  	0.008058 
1940.388896  	0.007533 
1942.317712  	0.007507 
1944.246528  	0.007265 
1946.175344  	0.007965 
1948.104160  	0.007728 
1950.032976  	0.007723 
1951.961792  	0.007891 
1953.890608  	0.008446 
1955.819424  	0.007799 
1957.748240  	0.007715 
1959.677056  	0.007869 
1961.605872  	0.007497 
1963.534688  	0.007418 
1965.463504  	0.008557 
1967.392320  	0.007916 
1969.321136  	0.007736 
1971.249952  	0.008405 
1973.178768  	0.008953 
1975.107584  	0.007781 
1977.036400  	0.007561 
1978.965216  	0.010165 
1980.894032  	0.010684 
1982.822848  	0.008905 
1984.751664  	0.008571 
1986.680480  	0.008139 
1988.609296  	0.008308 
1990.538112  	0.008800 
1992.466928  	0.009327 
1994.395744  	0.008663 
1996.324560  	0.008258 
1998.253376  	0.007982 
2000.182192  	0.007884 
2002.111008  	0.008044 
2004.039824  	0.007805 
2005.968640  	0.006649 
2007.897456  	0.007555 
2009.826272  	0.007683 
2011.755088  	0.006214 
2013.683904  	0.006477 
2015.612720  	0.007720 
2017.541536  	0.007204 
2019.470352  	0.007215 
2021.399168  	0.006876 
2023.327984  	0.007099 
2025.256800  	0.007230 
2027.185616  	0.006603 
2029.114432  	0.005941 
2031.043248  	0.007852 
2032.972064  	0.008581 
2034.900880  	0.009188 
2036.829696  	0.008880 
2038.758512  	0.008316 
2040.687328  	0.007788 
2042.616144  	0.007911 
2044.544960  	0.008123 
2046.473776  	0.008747 
2048.402592  	0.009051 
2050.331408  	0.010049 
2052.260224  	0.009429 
2054.189040  	0.008875 
2056.117856  	0.008171 
2058.046672  	0.008198 
2059.975488  	0.007859 
2061.904304  	0.007900 
2063.833120  	0.008629 
2065.761936  	0.009507 
2067.690752  	0.009352 
2069.619568  	0.008551 
2071.548384  	0.007334 
2073.477200  	0.007697 
2075.406016  	0.008680 
2077.334832  	0.009041 
2079.263648  	0.008517 
2081.192464  	0.008438 
2083.121280  	0.008650 
2085.050096  	0.008657 
2086.978912  	0.008597 
2088.907728  	0.008583 
2090.836544  	0.007922 
2092.765360  	0.007508 
2094.694176  	0.007838 
2096.622992  	0.008094 
2098.551808  	0.008008 
2100.480624  	0.008152 
2102.409440  	0.007661 
2104.338256  	0.007923 
2106.267072  	0.008307 
2108.195888  	0.008547 
2110.124704  	0.009180 
2112.053520  	0.009453 
2113.982336  	0.009029 
2115.911152  	0.009117 
2117.839968  	0.008585 
2119.768784  	0.007928 
2121.697600  	0.007532 
2123.626416  	0.007182 
2125.555232  	0.007120 
2127.484048  	0.007420 
2129.412864  	0.006863 
2131.341680  	0.006033 
2133.270496  	0.006882 
2135.199312  	0.007889 
2137.128128  	0.008250 
2139.056944  	0.008110 
2140.985760  	0.006795 
2142.914576  	0.007403 
2144.843392  	0.007224 
2146.772208  	0.007619 
2148.701024  	0.008086 
2150.629840  	0.008323 
2152.558656  	0.007135 
2154.487472  	0.005399 
2156.416288  	0.004033 
2158.345104  	0.006395 
2160.273920  	0.009541 
2162.202736  	0.009390 
2164.131552  	0.008683 
2166.060368  	0.010158 
2167.989184  	0.009141 
2169.918000  	0.007659 
2171.846816  	0.007894 
2173.775632  	0.008544 
2175.704448  	0.009323 
2177.633264  	0.010148 
2179.562080  	0.009946 
2181.490896  	0.009470 
2183.419712  	0.009254 
2185.348528  	0.010080 
2187.277344  	0.009265 
2189.206160  	0.008678 
2191.134976  	0.009536 
2193.063792  	0.010408 
2194.992608  	0.010239 
2196.921424  	0.009434 
2198.850240  	0.009521 
2200.779056  	0.009489 
2202.707872  	0.009315 
2204.636688  	0.009490 
2206.565504  	0.009201 
2208.494320  	0.009536 
2210.423136  	0.008953 
2212.351952  	0.008621 
2214.280768  	0.008821 
2216.209584  	0.008862 
2218.138400  	0.009383 
2220.067216  	0.009340 
2221.996032  	0.009220 
2223.924848  	0.008805 
2225.853664  	0.008721 
2227.782480  	0.009499 
2229.711296  	0.009961 
2231.640112  	0.009619 
2233.568928  	0.009336 
2235.497744  	0.009685 
2237.426560  	0.009153 
2239.355376  	0.008753 
2241.284192  	0.008603 
2243.213008  	0.008747 
2245.141824  	0.008556 
2247.070640  	0.007977 
2248.999456  	0.008085 
2250.928272  	0.008815 
2252.857088  	0.009090 
2254.785904  	0.009071 
2256.714720  	0.009429 
2258.643536  	0.009765 
2260.572352  	0.009491 
2262.501168  	0.009441 
2264.429984  	0.009476 
2266.358800  	0.009877 
2268.287616  	0.010074 
2270.216432  	0.009831 
2272.145248  	0.009498 
2274.074064  	0.009825 
2276.002880  	0.009788 
2277.931696  	0.010023 
2279.860512  	0.010413 
2281.789328  	0.010514 
2283.718144  	0.010322 
2285.646960  	0.010461 
2287.575776  	0.010470 
2289.504592  	0.010064 
2291.433408  	0.009625 
2293.362224  	0.009683 
2295.291040  	0.009886 
2297.219856  	0.010004 
2299.148672  	0.009931 
2301.077488  	0.009762 
2303.006304  	0.009818 
2304.935120  	0.009695 
2306.863936  	0.009406 
2308.792752  	0.009497 
2310.721568  	0.009651 
2312.650384  	0.009631 
2314.579200  	0.009642 
2316.508016  	0.009841 
2318.436832  	0.009799 
2320.365648  	0.009781 
2322.294464  	0.010100 
2324.223280  	0.009962 
2326.152096  	0.008857 
2328.080912  	0.008124 
2330.009728  	0.007919 
2331.938544  	0.008083 
2333.867360  	0.007699 
2335.796176  	0.007300 
2337.724992  	0.007209 
2339.653808  	0.007361 
2341.582624  	0.007749 
2343.511440  	0.008370 
2345.440256  	0.008757 
2347.369072  	0.008981 
2349.297888  	0.008231 
2351.226704  	0.007406 
2353.155520  	0.007428 
2355.084336  	0.007367 
2357.013152  	0.007237 
2358.941968  	0.006793 
2360.870784  	0.006292 
2362.799600  	0.006581 
2364.728416  	0.006762 
2366.657232  	0.007219 
2368.586048  	0.007285 
2370.514864  	0.007842 
2372.443680  	0.008294 
2374.372496  	0.008717 
2376.301312  	0.009115 
2378.230128  	0.009455 
2380.158944  	0.009427 
2382.087760  	0.009397 
2384.016576  	0.009427 
2385.945392  	0.009535 
2387.874208  	0.009221 
2389.803024  	0.008959 
2391.731840  	0.008808 
2393.660656  	0.008907 
2395.589472  	0.009226 
2397.518288  	0.009436 
2399.447104  	0.009352 
2401.375920  	0.009030 
2403.304736  	0.008990 
2405.233552  	0.009372 
2407.162368  	0.009725 
2409.091184  	0.009762 
2411.020000  	0.009828 
2412.948816  	0.009915 
2414.877632  	0.009842 
2416.806448  	0.009778 
2418.735264  	0.009748 
2420.664080  	0.009658 
2422.592896  	0.009471 
2424.521712  	0.009499 
2426.450528  	0.009638 
2428.379344  	0.009548 
2430.308160  	0.009481 
2432.236976  	0.009521 
2434.165792  	0.009748 
2436.094608  	0.010224 
2438.023424  	0.010455 
2439.952240  	0.010418 
2441.881056  	0.010313 
2443.809872  	0.010221 
2445.738688  	0.010225 
2447.667504  	0.010319 
2449.596320  	0.010384 
2451.525136  	0.010335 
2453.453952  	0.010345 
2455.382768  	0.010601 
2457.311584  	0.010860 
2459.240400  	0.010689 
2461.169216  	0.010466 
2463.098032  	0.010408 
2465.026848  	0.010408 
2466.955664  	0.010460 
2468.884480  	0.010453 
2470.813296  	0.010554 
2472.742112  	0.010463 
2474.670928  	0.010391 
2476.599744  	0.010394 
2478.528560  	0.010453 
2480.457376  	0.010822 
2482.386192  	0.010858 
2484.315008  	0.010784 
2486.243824  	0.010722 
2488.172640  	0.010559 
2490.101456  	0.010718 
2492.030272  	0.010895 
2493.959088  	0.010745 
2495.887904  	0.010642 
2497.816720  	0.010706 
2499.745536  	0.010734 
2501.674352  	0.010951 
2503.603168  	0.011119 
2505.531984  	0.011180 
2507.460800  	0.011213 
2509.389616  	0.011332 
2511.318432  	0.011111 
2513.247248  	0.011046 
2515.176064  	0.011036 
2517.104880  	0.011315 
2519.033696  	0.011533 
2520.962512  	0.011498 
2522.891328  	0.011654 
2524.820144  	0.011696 
2526.748960  	0.011746 
2528.677776  	0.011951 
2530.606592  	0.011907 
2532.535408  	0.011806 
2534.464224  	0.011983 
2536.393040  	0.012063 
2538.321856  	0.011857 
2540.250672  	0.011901 
2542.179488  	0.011964 
2544.108304  	0.012021 
2546.037120  	0.011945 
2547.965936  	0.012226 
2549.894752  	0.012438 
2551.823568  	0.012337 
2553.752384  	0.012237 
2555.681200  	0.012328 
2557.610016  	0.012426 
2559.538832  	0.012459 
2561.467648  	0.012493 
2563.396464  	0.012665 
2565.325280  	0.012829 
2567.254096  	0.012759 
2569.182912  	0.012531 
2571.111728  	0.012558 
2573.040544  	0.012603 
2574.969360  	0.012629 
2576.898176  	0.012737 
2578.826992  	0.013001 
2580.755808  	0.013249 
2582.684624  	0.013227 
2584.613440  	0.012995 
2586.542256  	0.013151 
2588.471072  	0.013316 
2590.399888  	0.013190 
2592.328704  	0.013262 
2594.257520  	0.013636 
2596.186336  	0.014011 
2598.115152  	0.014114 
2600.043968  	0.013791 
2601.972784  	0.013625 
2603.901600  	0.013873 
2605.830416  	0.014208 
2607.759232  	0.014089 
2609.688048  	0.014000 
2611.616864  	0.014043 
2613.545680  	0.014155 
2615.474496  	0.014241 
2617.403312  	0.014299 
2619.332128  	0.014435 
2621.260944  	0.014493 
2623.189760  	0.014510 
2625.118576  	0.014582 
2627.047392  	0.014657 
2628.976208  	0.014835 
2630.905024  	0.014935 
2632.833840  	0.015195 
2634.762656  	0.015278 
2636.691472  	0.015143 
2638.620288  	0.015113 
2640.549104  	0.015318 
2642.477920  	0.015459 
2644.406736  	0.015474 
2646.335552  	0.015675 
2648.264368  	0.015782 
2650.193184  	0.015772 
2652.122000  	0.015901 
2654.050816  	0.016070 
2655.979632  	0.016035 
2657.908448  	0.015983 
2659.837264  	0.016017 
2661.766080  	0.015963 
2663.694896  	0.015975 
2665.623712  	0.015966 
2667.552528  	0.015860 
2669.481344  	0.015925 
2671.410160  	0.016193 
2673.338976  	0.016368 
2675.267792  	0.016424 
2677.196608  	0.016445 
2679.125424  	0.016568 
2681.054240  	0.016531 
2682.983056  	0.016508 
2684.911872  	0.016661 
2686.840688  	0.016805 
2688.769504  	0.016906 
2690.698320  	0.017011 
2692.627136  	0.017068 
2694.555952  	0.017048 
2696.484768  	0.016989 
2698.413584  	0.017060 
2700.342400  	0.017142 
2702.271216  	0.017273 
2704.200032  	0.017445 
2706.128848  	0.017641 
2708.057664  	0.017749 
2709.986480  	0.017804 
2711.915296  	0.017825 
2713.844112  	0.017824 
2715.772928  	0.017988 
2717.701744  	0.018118 
2719.630560  	0.018083 
2721.559376  	0.018175 
2723.488192  	0.018393 
2725.417008  	0.018568 
2727.345824  	0.018692 
2729.274640  	0.018744 
2731.203456  	0.018773 
2733.132272  	0.018910 
2735.061088  	0.019156 
2736.989904  	0.019213 
2738.918720  	0.019215 
2740.847536  	0.019171 
2742.776352  	0.019265 
2744.705168  	0.019459 
2746.633984  	0.019549 
2748.562800  	0.019614 
2750.491616  	0.019733 
2752.420432  	0.019819 
2754.349248  	0.019834 
2756.278064  	0.019843 
2758.206880  	0.019867 
2760.135696  	0.020055 
2762.064512  	0.020095 
2763.993328  	0.020070 
2765.922144  	0.020122 
2767.850960  	0.020176 
2769.779776  	0.020207 
2771.708592  	0.020252 
2773.637408  	0.020300 
2775.566224  	0.020420 
2777.495040  	0.020425 
2779.423856  	0.020427 
2781.352672  	0.020551 
2783.281488  	0.020677 
2785.210304  	0.020656 
2787.139120  	0.020802 
2789.067936  	0.020924 
2790.996752  	0.020918 
2792.925568  	0.021094 
2794.854384  	0.021315 
2796.783200  	0.021324 
2798.712016  	0.021214 
2800.640832  	0.021314 
2802.569648  	0.021491 
2804.498464  	0.021537 
2806.427280  	0.021573 
2808.356096  	0.021779 
2810.284912  	0.021969 
2812.213728  	0.022001 
2814.142544  	0.022073 
2816.071360  	0.022266 
2818.000176  	0.022311 
2819.928992  	0.022280 
2821.857808  	0.022419 
2823.786624  	0.022582 
2825.715440  	0.022725 
2827.644256  	0.022765 
2829.573072  	0.022867 
2831.501888  	0.022935 
2833.430704  	0.023068 
2835.359520  	0.023226 
2837.288336  	0.023294 
2839.217152  	0.023403 
2841.145968  	0.023543 
2843.074784  	0.023702 
2845.003600  	0.023978 
2846.932416  	0.024292 
2848.861232  	0.024455 
2850.790048  	0.024691 
2852.718864  	0.025052 
2854.647680  	0.025367 
2856.576496  	0.025728 
2858.505312  	0.026013 
2860.434128  	0.026364 
2862.362944  	0.026857 
2864.291760  	0.027438 
2866.220576  	0.027997 
2868.149392  	0.028607 
2870.078208  	0.029165 
2872.007024  	0.029576 
2873.935840  	0.029982 
2875.864656  	0.030550 
2877.793472  	0.031292 
2879.722288  	0.032095 
2881.651104  	0.032860 
2883.579920  	0.033458 
2885.508736  	0.033849 
2887.437552  	0.033975 
2889.366368  	0.034124 
2891.295184  	0.034503 
2893.224000  	0.034800 
2895.152816  	0.034991 
2897.081632  	0.035030 
2899.010448  	0.035846 
2900.939264  	0.036917 
2902.868080  	0.036641 
2904.796896  	0.036171 
2906.725712  	0.036072 
2908.654528  	0.036115 
2910.583344  	0.036327 
2912.512160  	0.036570 
2914.440976  	0.036690 
2916.369792  	0.036792 
2918.298608  	0.037007 
2920.227424  	0.037321 
2922.156240  	0.037593 
2924.085056  	0.037825 
2926.013872  	0.038274 
2927.942688  	0.038629 
2929.871504  	0.038729 
2931.800320  	0.038874 
2933.729136  	0.039077 
2935.657952  	0.039276 
2937.586768  	0.039566 
2939.515584  	0.039665 
2941.444400  	0.039822 
2943.373216  	0.040251 
2945.302032  	0.040609 
2947.230848  	0.040758 
2949.159664  	0.040955 
2951.088480  	0.041437 
2953.017296  	0.041950 
2954.946112  	0.042121 
2956.874928  	0.042258 
2958.803744  	0.042331 
2960.732560  	0.042375 
2962.661376  	0.042570 
2964.590192  	0.042876 
2966.519008  	0.043330 
2968.447824  	0.043565 
2970.376640  	0.043749 
2972.305456  	0.043541 
2974.234272  	0.043048 
2976.163088  	0.042718 
2978.091904  	0.042480 
2980.020720  	0.042338 
2981.949536  	0.042280 
2983.878352  	0.042261 
2985.807168  	0.042435 
2987.735984  	0.042929 
2989.664800  	0.042752 
2991.593616  	0.041349 
2993.522432  	0.040407 
2995.451248  	0.040085 
2997.380064  	0.039614 
2999.308880  	0.039094 
3001.237696  	0.038787 
3003.166512  	0.038434 
3005.095328  	0.037873 
3007.024144  	0.037385 
3008.952960  	0.036857 
3010.881776  	0.036321 
3012.810592  	0.035808 
3014.739408  	0.035395 
3016.668224  	0.035165 
3018.597040  	0.034800 
3020.525856  	0.034235 
3022.454672  	0.033989 
3024.383488  	0.033932 
3026.312304  	0.033765 
3028.241120  	0.033642 
3030.169936  	0.033320 
3032.098752  	0.033213 
3034.027568  	0.032983 
3035.956384  	0.032614 
3037.885200  	0.032666 
3039.814016  	0.032910 
3041.742832  	0.033102 
3043.671648  	0.033136 
3045.600464  	0.033083 
3047.529280  	0.033167 
3049.458096  	0.033329 
3051.386912  	0.033310 
3053.315728  	0.033359 
3055.244544  	0.033692 
3057.173360  	0.034171 
3059.102176  	0.034452 
3061.030992  	0.034608 
3062.959808  	0.034745 
3064.888624  	0.034995 
3066.817440  	0.035381 
3068.746256  	0.035587 
3070.675072  	0.035665 
3072.603888  	0.035994 
3074.532704  	0.036395 
3076.461520  	0.036660 
3078.390336  	0.036959 
3080.319152  	0.037396 
3082.247968  	0.037825 
3084.176784  	0.038156 
3086.105600  	0.038267 
3088.034416  	0.038369 
3089.963232  	0.038831 
3091.892048  	0.039221 
3093.820864  	0.039420 
3095.749680  	0.039643 
3097.678496  	0.039638 
3099.607312  	0.039946 
3101.536128  	0.040431 
3103.464944  	0.040787 
3105.393760  	0.041142 
3107.322576  	0.041500 
3109.251392  	0.041669 
3111.180208  	0.041860 
3113.109024  	0.042060 
3115.037840  	0.042282 
3116.966656  	0.042456 
3118.895472  	0.042500 
3120.824288  	0.042697 
3122.753104  	0.043120 
3124.681920  	0.043451 
3126.610736  	0.043665 
3128.539552  	0.043981 
3130.468368  	0.044141 
3132.397184  	0.044217 
3134.326000  	0.044297 
3136.254816  	0.044535 
3138.183632  	0.044817 
3140.112448  	0.044876 
3142.041264  	0.044990 
3143.970080  	0.045297 
3145.898896  	0.045512 
3147.827712  	0.045599 
3149.756528  	0.045861 
3151.685344  	0.046376 
3153.614160  	0.046666 
3155.542976  	0.046625 
3157.471792  	0.046752 
3159.400608  	0.047304 
3161.329424  	0.047685 
3163.258240  	0.048052 
3165.187056  	0.048346 
3167.115872  	0.048412 
3169.044688  	0.048372 
3170.973504  	0.048387 
3172.902320  	0.048575 
3174.831136  	0.048872 
3176.759952  	0.049100 
3178.688768  	0.049235 
3180.617584  	0.049272 
3182.546400  	0.049239 
3184.475216  	0.049589 
3186.404032  	0.049843 
3188.332848  	0.049878 
3190.261664  	0.050060 
3192.190480  	0.050037 
3194.119296  	0.049807 
3196.048112  	0.049775 
3197.976928  	0.050151 
3199.905744  	0.050280 
3201.834560  	0.050340 
3203.763376  	0.050364 
3205.692192  	0.050348 
3207.621008  	0.050267 
3209.549824  	0.049948 
3211.478640  	0.049764 
3213.407456  	0.049642 
3215.336272  	0.049688 
3217.265088  	0.049660 
3219.193904  	0.049449 
3221.122720  	0.049325 
3223.051536  	0.049209 
3224.980352  	0.048994 
3226.909168  	0.048718 
3228.837984  	0.048652 
3230.766800  	0.048708 
3232.695616  	0.048685 
3234.624432  	0.048610 
3236.553248  	0.048487 
3238.482064  	0.048372 
3240.410880  	0.048343 
3242.339696  	0.048406 
3244.268512  	0.048373 
3246.197328  	0.048360 
3248.126144  	0.048406 
3250.054960  	0.048420 
3251.983776  	0.048285 
3253.912592  	0.048350 
3255.841408  	0.048513 
3257.770224  	0.048569 
3259.699040  	0.048644 
3261.627856  	0.048662 
3263.556672  	0.048698 
3265.485488  	0.048821 
3267.414304  	0.049019 
3269.343120  	0.048972 
3271.271936  	0.049045 
3273.200752  	0.049332 
3275.129568  	0.049360 
3277.058384  	0.049387 
3278.987200  	0.049619 
3280.916016  	0.049740 
3282.844832  	0.049775 
3284.773648  	0.049779 
3286.702464  	0.049882 
3288.631280  	0.050114 
3290.560096  	0.050180 
3292.488912  	0.050346 
3294.417728  	0.050509 
3296.346544  	0.050744 
3298.275360  	0.051000 
3300.204176  	0.051305 
3302.132992  	0.051340 
3304.061808  	0.051455 
3305.990624  	0.051841 
3307.919440  	0.051972 
3309.848256  	0.051954 
3311.777072  	0.052012 
3313.705888  	0.052339 
3315.634704  	0.052591 
3317.563520  	0.052749 
3319.492336  	0.052991 
3321.421152  	0.053164 
3323.349968  	0.053297 
3325.278784  	0.053654 
3327.207600  	0.053653 
3329.136416  	0.053525 
3331.065232  	0.053418 
3332.994048  	0.053410 
3334.922864  	0.053485 
3336.851680  	0.053402 
3338.780496  	0.053523 
3340.709312  	0.053602 
3342.638128  	0.053541 
3344.566944  	0.053661 
3346.495760  	0.053629 
3348.424576  	0.053434 
3350.353392  	0.053135 
3352.282208  	0.052987 
3354.211024  	0.052969 
3356.139840  	0.052775 
3358.068656  	0.052505 
3359.997472  	0.052359 
3361.926288  	0.052198 
3363.855104  	0.052023 
3365.783920  	0.051961 
3367.712736  	0.051758 
3369.641552  	0.051293 
3371.570368  	0.051164 
3373.499184  	0.051150 
3375.428000  	0.050852 
3377.356816  	0.050565 
3379.285632  	0.050569 
3381.214448  	0.050547 
3383.143264  	0.050146 
3385.072080  	0.050077 
3387.000896  	0.049996 
3388.929712  	0.049661 
3390.858528  	0.049219 
3392.787344  	0.048974 
3394.716160  	0.048822 
3396.644976  	0.048509 
3398.573792  	0.048185 
3400.502608  	0.047737 
3402.431424  	0.047390 
3404.360240  	0.047283 
3406.289056  	0.047255 
3408.217872  	0.047073 
3410.146688  	0.046731 
3412.075504  	0.046620 
3414.004320  	0.046585 
3415.933136  	0.046206 
3417.861952  	0.045749 
3419.790768  	0.045577 
3421.719584  	0.045522 
3423.648400  	0.045221 
3425.577216  	0.044924 
3427.506032  	0.044658 
3429.434848  	0.044260 
3431.363664  	0.044041 
3433.292480  	0.043953 
3435.221296  	0.043829 
3437.150112  	0.043455 
3439.078928  	0.043282 
3441.007744  	0.043147 
3442.936560  	0.042880 
3444.865376  	0.042289 
3446.794192  	0.041692 
3448.723008  	0.041520 
3450.651824  	0.041328 
3452.580640  	0.041001 
3454.509456  	0.040681 
3456.438272  	0.040328 
3458.367088  	0.040121 
3460.295904  	0.039891 
3462.224720  	0.039485 
3464.153536  	0.039181 
3466.082352  	0.038951 
3468.011168  	0.038699 
3469.939984  	0.038291 
3471.868800  	0.037797 
3473.797616  	0.037636 
3475.726432  	0.037286 
3477.655248  	0.036668 
3479.584064  	0.036308 
3481.512880  	0.036116 
3483.441696  	0.035793 
3485.370512  	0.035092 
3487.299328  	0.034659 
3489.228144  	0.034466 
3491.156960  	0.034040 
3493.085776  	0.033673 
3495.014592  	0.033296 
3496.943408  	0.033064 
3498.872224  	0.032651 
3500.801040  	0.032074 
3502.729856  	0.031818 
3504.658672  	0.031693 
3506.587488  	0.031001 
3508.516304  	0.030556 
3510.445120  	0.030534 
3512.373936  	0.030435 
3514.302752  	0.030166 
3516.231568  	0.029683 
3518.160384  	0.029222 
3520.089200  	0.029016 
3522.018016  	0.028526 
3523.946832  	0.028173 
3525.875648  	0.028086 
3527.804464  	0.028058 
3529.733280  	0.028076 
3531.662096  	0.027726 
3533.590912  	0.027156 
3535.519728  	0.026956 
3537.448544  	0.026922 
3539.377360  	0.026648 
3541.306176  	0.026192 
3543.234992  	0.025449 
3545.163808  	0.025142 
3547.092624  	0.025184 
3549.021440  	0.024739 
3550.950256  	0.024327 
3552.879072  	0.024385 
3554.807888  	0.024374 
3556.736704  	0.023993 
3558.665520  	0.023579 
3560.594336  	0.023384 
3562.523152  	0.022914 
3564.451968  	0.022059 
3566.380784  	0.021502 
3568.309600  	0.022193 
3570.238416  	0.022322 
3572.167232  	0.021553 
3574.096048  	0.021139 
3576.024864  	0.020990 
3577.953680  	0.020502 
3579.882496  	0.020277 
3581.811312  	0.020202 
3583.740128  	0.019503 
3585.668944  	0.018522 
3587.597760  	0.018951 
3589.526576  	0.019173 
3591.455392  	0.018075 
3593.384208  	0.017535 
3595.313024  	0.017477 
3597.241840  	0.017182 
3599.170656  	0.016722 
3601.099472  	0.016645 
3603.028288  	0.016476 
3604.957104  	0.015664 
3606.885920  	0.014822 
3608.814736  	0.015159 
3610.743552  	0.014672 
3612.672368  	0.013808 
3614.601184  	0.013655 
3616.530000  	0.012741 
3618.458816  	0.012699 
3620.387632  	0.013441 
3622.316448  	0.013148 
3624.245264  	0.012399 
3626.174080  	0.010828 
3628.102896  	0.010124 
3630.031712  	0.012432 
3631.960528  	0.011912 
3633.889344  	0.011203 
3635.818160  	0.010974 
3637.746976  	0.010883 
3639.675792  	0.011010 
3641.604608  	0.010751 
3643.533424  	0.010105 
3645.462240  	0.008454 
3647.391056  	0.007551 
3649.319872  	0.008585 
3651.248688  	0.010666 
3653.177504  	0.010222 
3655.106320  	0.009268 
3657.035136  	0.010151 
3658.963952  	0.010136 
3660.892768  	0.009727 
3662.821584  	0.009406 
3664.750400  	0.009017 
3666.679216  	0.008098 
3668.608032  	0.007005 
3670.536848  	0.008105 
3672.465664  	0.007767 
3674.394480  	0.006405 
3676.323296  	0.008965 
3678.252112  	0.008597 
3680.180928  	0.007778 
3682.109744  	0.007621 
3684.038560  	0.007368 
3685.967376  	0.006173 
3687.896192  	0.005361 
3689.825008  	0.006528 
3691.753824  	0.007310 
3693.682640  	0.006945 
3695.611456  	0.006115 
3697.540272  	0.005716 
3699.469088  	0.005103 
3701.397904  	0.005541 
3703.326720  	0.005858 
3705.255536  	0.004965 
3707.184352  	0.003774 
3709.113168  	0.002950 
3711.041984  	0.003543 
3712.970800  	0.004927 
3714.899616  	0.004940 
3716.828432  	0.004291 
3718.757248  	0.003723 
3720.686064  	0.003497 
3722.614880  	0.003895 
3724.543696  	0.004033 
3726.472512  	0.004224 
3728.401328  	0.003907 
3730.330144  	0.002611 
3732.258960  	0.002389 
3734.187776  	0.002735 
3736.116592  	0.004457 
3738.045408  	0.004544 
3739.974224  	0.003148 
3741.903040  	0.001807 
3743.831856  	0.002477 
3745.760672  	0.004908 
3747.689488  	0.002732 
3749.618304  	0.002006 
3751.547120  	0.003762 
3753.475936  	0.005088 
3755.404752  	0.003990 
3757.333568  	0.003215 
3759.262384  	0.003534 
3761.191200  	0.004494 
3763.120016  	0.004027 
3765.048832  	0.003846 
3766.977648  	0.003891 
3768.906464  	0.003598 
3770.835280  	0.004650 
3772.764096  	0.004740 
3774.692912  	0.004253 
3776.621728  	0.003545 
3778.550544  	0.003486 
3780.479360  	0.004342 
3782.408176  	0.004027 
3784.336992  	0.003815 
3786.265808  	0.004227 
3788.194624  	0.004369 
3790.123440  	0.004267 
3792.052256  	0.004129 
3793.981072  	0.003502 
3795.909888  	0.003360 
3797.838704  	0.003396 
3799.767520  	0.002260 
3801.696336  	0.003689 
3803.625152  	0.004366 
3805.553968  	0.003095 
3807.482784  	0.004065 
3809.411600  	0.004541 
3811.340416  	0.004117 
3813.269232  	0.003169 
3815.198048  	0.002855 
3817.126864  	0.003877 
3819.055680  	0.002473 
3820.984496  	0.003378 
3822.913312  	0.005173 
3824.842128  	0.003899 
3826.770944  	0.003753 
3828.699760  	0.003820 
3830.628576  	0.003147 
3832.557392  	0.003372 
3834.486208  	0.002919 
3836.415024  	0.002465 
3838.343840  	0.003449 
3840.272656  	0.004018 
3842.201472  	0.003795 
3844.130288  	0.004026 
3846.059104  	0.004265 
3847.987920  	0.003532 
3849.916736  	0.002206 
3851.845552  	0.001040 
3853.774368  	0.004154 
3855.703184  	0.005364 
3857.632000  	0.004163 
3859.560816  	0.003409 
3861.489632  	0.003089 
3863.418448  	0.003300 
3865.347264  	0.004101 
3867.276080  	0.003199 
3869.204896  	0.002799 
3871.133712  	0.004562 
3873.062528  	0.003958 
3874.991344  	0.004534 
3876.920160  	0.003991 
3878.848976  	0.002854 
3880.777792  	0.003594 
3882.706608  	0.003774 
3884.635424  	0.003163 
3886.564240  	0.004600 
3888.493056  	0.004029 
3890.421872  	0.003415 
3892.350688  	0.004347 
3894.279504  	0.004140 
3896.208320  	0.003407 
3898.137136  	0.003154 
3900.065952  	0.003293 
3901.994768  	0.003231 
3903.923584  	0.003924 
3905.852400  	0.004668 
3907.781216  	0.004545 
3909.710032  	0.004173 
3911.638848  	0.004008 
3913.567664  	0.003793 
3915.496480  	0.003540 
3917.425296  	0.004219 
3919.354112  	0.004496 
3921.282928  	0.004390 
3923.211744  	0.003913 
3925.140560  	0.004006 
3927.069376  	0.004058 
3928.998192  	0.003744 
3930.927008  	0.003824 
3932.855824  	0.004374 
3934.784640  	0.004505 
3936.713456  	0.004340 
3938.642272  	0.004213 
3940.571088  	0.003807 
3942.499904  	0.004028 
3944.428720  	0.004376 
3946.357536  	0.004071 
3948.286352  	0.004047 
3950.215168  	0.004133 
3952.143984  	0.004054 
3954.072800  	0.003956 
3956.001616  	0.003857 
3957.930432  	0.004188 
3959.859248  	0.004480 
3961.788064  	0.004408 
3963.716880  	0.004342 
3965.645696  	0.004190 
3967.574512  	0.004162 
3969.503328  	0.004169 
3971.432144  	0.004089 
3973.360960  	0.004073 
3975.289776  	0.004317 
3977.218592  	0.004447 
3979.147408  	0.004288 
3981.076224  	0.004079 
3983.005040  	0.004079 
3984.933856  	0.004225 
3986.862672  	0.004448 
3988.791488  	0.004317 
3990.720304  	0.004231 
3992.649120  	0.004351 
3994.577936  	0.004351 
3996.506752  	0.004364 
3998.435568  	0.004462 
4000.364384  	0.004369 