##TITLE=No Description
##DATA TYPE=INFRARED SPECTRUM
##XUNITS=1/CM
##YUNITS=Abs
399.264912  	0.491319 
401.193728  	0.472412 
403.122544  	0.467676 
405.051360  	0.460632 
406.980176  	0.461358 
408.908992  	0.452264 
410.837808  	0.444904 
412.766624  	0.449472 
414.695440  	0.456661 
416.624256  	0.450101 
418.553072  	0.445731 
420.481888  	0.447056 
422.410704  	0.443564 
424.339520  	0.436308 
426.268336  	0.438663 
428.197152  	0.435802 
430.125968  	0.435772 
432.054784  	0.431562 
433.983600  	0.430912 
435.912416  	0.424591 
437.841232  	0.423960 
439.770048  	0.424184 
441.698864  	0.420555 
443.627680  	0.414409 
445.556496  	0.414957 
447.485312  	0.415965 
449.414128  	0.414063 
451.342944  	0.411361 
453.271760  	0.412920 
455.200576  	0.406379 
457.129392  	0.405645 
459.058208  	0.405461 
460.987024  	0.406824 
462.915840  	0.403686 
464.844656  	0.404480 
466.773472  	0.404668 
468.702288  	0.405330 
470.631104  	0.401146 
472.559920  	0.398434 
474.488736  	0.393029 
476.417552  	0.394717 
478.346368  	0.394926 
480.275184  	0.394079 
482.204000  	0.390428 
484.132816  	0.393182 
486.061632  	0.394856 
487.990448  	0.393574 
489.919264  	0.389036 
491.848080  	0.387461 
493.776896  	0.385150 
495.705712  	0.385317 
497.634528  	0.384236 
499.563344  	0.386383 
501.492160  	0.384179 
503.420976  	0.383019 
505.349792  	0.380936 
507.278608  	0.382127 
509.207424  	0.380571 
511.136240  	0.379998 
513.065056  	0.379878 
514.993872  	0.380393 
516.922688  	0.379334 
518.851504  	0.379291 
520.780320  	0.378357 
522.709136  	0.379746 
524.637952  	0.377338 
526.566768  	0.375708 
528.495584  	0.374221 
530.424400  	0.373115 
532.353216  	0.370276 
534.282032  	0.367962 
536.210848  	0.363431 
538.139664  	0.360109 
540.068480  	0.357852 
541.997296  	0.356293 
543.926112  	0.354410 
545.854928  	0.353671 
547.783744  	0.351030 
549.712560  	0.347797 
551.641376  	0.344313 
553.570192  	0.342682 
555.499008  	0.340576 
557.427824  	0.339090 
559.356640  	0.336492 
561.285456  	0.334178 
563.214272  	0.331168 
565.143088  	0.329181 
567.071904  	0.326621 
569.000720  	0.323765 
570.929536  	0.321299 
572.858352  	0.319089 
574.787168  	0.316435 
576.715984  	0.313825 
578.644800  	0.310609 
580.573616  	0.308426 
582.502432  	0.306028 
584.431248  	0.304438 
586.360064  	0.303405 
588.288880  	0.302062 
590.217696  	0.299566 
592.146512  	0.297686 
594.075328  	0.295725 
596.004144  	0.293954 
597.932960  	0.292340 
599.861776  	0.292026 
601.790592  	0.290760 
603.719408  	0.289215 
605.648224  	0.286861 
607.577040  	0.285846 
609.505856  	0.284934 
611.434672  	0.283702 
613.363488  	0.281600 
615.292304  	0.280328 
617.221120  	0.279126 
619.149936  	0.278386 
621.078752  	0.276542 
623.007568  	0.274555 
624.936384  	0.272795 
626.865200  	0.272379 
628.794016  	0.271194 
630.722832  	0.269769 
632.651648  	0.268476 
634.580464  	0.267359 
636.509280  	0.266631 
638.438096  	0.265610 
640.366912  	0.264744 
642.295728  	0.263838 
644.224544  	0.262524 
646.153360  	0.260718 
648.082176  	0.258230 
650.010992  	0.256430 
651.939808  	0.254012 
653.868624  	0.251867 
655.797440  	0.249093 
657.726256  	0.247073 
659.655072  	0.244235 
661.583888  	0.241564 
663.512704  	0.238787 
665.441520  	0.236429 
667.370336  	0.234280 
669.299152  	0.231627 
671.227968  	0.229307 
673.156784  	0.227569 
675.085600  	0.225748 
677.014416  	0.224206 
678.943232  	0.222701 
680.872048  	0.220937 
682.800864  	0.219747 
684.729680  	0.218679 
686.658496  	0.216809 
688.587312  	0.214922 
690.516128  	0.212837 
692.444944  	0.211781 
694.373760  	0.210685 
696.302576  	0.209562 
698.231392  	0.207482 
700.160208  	0.205397 
702.089024  	0.203060 
704.017840  	0.201544 
705.946656  	0.199985 
707.875472  	0.197940 
709.804288  	0.195675 
711.733104  	0.194081 
713.661920  	0.192775 
715.590736  	0.192128 
717.519552  	0.191248 
719.448368  	0.190680 
721.377184  	0.190557 
723.306000  	0.190332 
725.234816  	0.189727 
727.163632  	0.188346 
729.092448  	0.186684 
731.021264  	0.185311 
732.950080  	0.183400 
734.878896  	0.181243 
736.807712  	0.179320 
738.736528  	0.177926 
740.665344  	0.176631 
742.594160  	0.175516 
744.522976  	0.174026 
746.451792  	0.172479 
748.380608  	0.171388 
750.309424  	0.170603 
752.238240  	0.169654 
754.167056  	0.168885 
756.095872  	0.167943 
758.024688  	0.166844 
759.953504  	0.165849 
761.882320  	0.165376 
763.811136  	0.164909 
765.739952  	0.164048 
767.668768  	0.162697 
769.597584  	0.161240 
771.526400  	0.160667 
773.455216  	0.160985 
775.384032  	0.161453 
777.312848  	0.162412 
779.241664  	0.163694 
781.170480  	0.163607 
783.099296  	0.161798 
785.028112  	0.159045 
786.956928  	0.155503 
788.885744  	0.152482 
790.814560  	0.150169 
792.743376  	0.148686 
794.672192  	0.147437 
796.601008  	0.146527 
798.529824  	0.145102 
800.458640  	0.142669 
802.387456  	0.139977 
804.316272  	0.138563 
806.245088  	0.137840 
808.173904  	0.137154 
810.102720  	0.136407 
812.031536  	0.135921 
813.960352  	0.135248 
815.889168  	0.134433 
817.817984  	0.133565 
819.746800  	0.132926 
821.675616  	0.132167 
823.604432  	0.131662 
825.533248  	0.130497 
827.462064  	0.129222 
829.390880  	0.128286 
831.319696  	0.127367 
833.248512  	0.126188 
835.177328  	0.125000 
837.106144  	0.123540 
839.034960  	0.121433 
840.963776  	0.119507 
842.892592  	0.118111 
844.821408  	0.116491 
846.750224  	0.114782 
848.679040  	0.113368 
850.607856  	0.111900 
852.536672  	0.110595 
854.465488  	0.109525 
856.394304  	0.108668 
858.323120  	0.107790 
860.251936  	0.106749 
862.180752  	0.105663 
864.109568  	0.104588 
866.038384  	0.103510 
867.967200  	0.102390 
869.896016  	0.101171 
871.824832  	0.099962 
873.753648  	0.099186 
875.682464  	0.099022 
877.611280  	0.099101 
879.540096  	0.099156 
881.468912  	0.099160 
883.397728  	0.099068 
885.326544  	0.098952 
887.255360  	0.098528 
889.184176  	0.097721 
891.112992  	0.096882 
893.041808  	0.095735 
894.970624  	0.094418 
896.899440  	0.092906 
898.828256  	0.090973 
900.757072  	0.089098 
902.685888  	0.087194 
904.614704  	0.085743 
906.543520  	0.085214 
908.472336  	0.085536 
910.401152  	0.086220 
912.329968  	0.087070 
914.258784  	0.087971 
916.187600  	0.088822 
918.116416  	0.089149 
920.045232  	0.089007 
921.974048  	0.088436 
923.902864  	0.087807 
925.831680  	0.086919 
927.760496  	0.086081 
929.689312  	0.085357 
931.618128  	0.084836 
933.546944  	0.084539 
935.475760  	0.083956 
937.404576  	0.083430 
939.333392  	0.083380 
941.262208  	0.083689 
943.191024  	0.084447 
945.119840  	0.085795 
947.048656  	0.087460 
948.977472  	0.089607 
950.906288  	0.092352 
952.835104  	0.095432 
954.763920  	0.098407 
956.692736  	0.101227 
958.621552  	0.103561 
960.550368  	0.104777 
962.479184  	0.105127 
964.408000  	0.104444 
966.336816  	0.102544 
968.265632  	0.099141 
970.194448  	0.095040 
972.123264  	0.090498 
974.052080  	0.085624 
975.980896  	0.080688 
977.909712  	0.076158 
979.838528  	0.072472 
981.767344  	0.069233 
983.696160  	0.066649 
985.624976  	0.065199 
987.553792  	0.065012 
989.482608  	0.065582 
991.411424  	0.066846 
993.340240  	0.068847 
995.269056  	0.071745 
997.197872  	0.074812 
999.126688  	0.077478 
1001.055504  	0.080426 
1002.984320  	0.083515 
1004.913136  	0.086455 
1006.841952  	0.088972 
1008.770768  	0.091291 
1010.699584  	0.093113 
1012.628400  	0.094342 
1014.557216  	0.095157 
1016.486032  	0.095630 
1018.414848  	0.095905 
1020.343664  	0.096256 
1022.272480  	0.096304 
1024.201296  	0.096295 
1026.130112  	0.096458 
1028.058928  	0.096805 
1029.987744  	0.096847 
1031.916560  	0.097401 
1033.845376  	0.098657 
1035.774192  	0.100157 
1037.703008  	0.101672 
1039.631824  	0.103834 
1041.560640  	0.106761 
1043.489456  	0.110633 
1045.418272  	0.115501 
1047.347088  	0.121372 
1049.275904  	0.127394 
1051.204720  	0.133525 
1053.133536  	0.138808 
1055.062352  	0.143437 
1056.991168  	0.146670 
1058.919984  	0.148249 
1060.848800  	0.148654 
1062.777616  	0.149272 
1064.706432  	0.149224 
1066.635248  	0.148613 
1068.564064  	0.146742 
1070.492880  	0.144644 
1072.421696  	0.142563 
1074.350512  	0.140479 
1076.279328  	0.138663 
1078.208144  	0.137433 
1080.136960  	0.136474 
1082.065776  	0.135643 
1083.994592  	0.134651 
1085.923408  	0.133998 
1087.852224  	0.132785 
1089.781040  	0.131297 
1091.709856  	0.128710 
1093.638672  	0.125380 
1095.567488  	0.121433 
1097.496304  	0.117844 
1099.425120  	0.113592 
1101.353936  	0.108718 
1103.282752  	0.103766 
1105.211568  	0.098767 
1107.140384  	0.093803 
1109.069200  	0.088576 
1110.998016  	0.083637 
1112.926832  	0.079127 
1114.855648  	0.074452 
1116.784464  	0.069785 
1118.713280  	0.065877 
1120.642096  	0.062475 
1122.570912  	0.058973 
1124.499728  	0.055763 
1126.428544  	0.052919 
1128.357360  	0.050042 
1130.286176  	0.047269 
1132.214992  	0.045340 
1134.143808  	0.043682 
1136.072624  	0.041955 
1138.001440  	0.040273 
1139.930256  	0.038723 
1141.859072  	0.037327 
1143.787888  	0.035828 
1145.716704  	0.034577 
1147.645520  	0.033855 
1149.574336  	0.033165 
1151.503152  	0.032377 
1153.431968  	0.032028 
1155.360784  	0.032054 
1157.289600  	0.032183 
1159.218416  	0.032454 
1161.147232  	0.032826 
1163.076048  	0.033186 
1165.004864  	0.033871 
1166.933680  	0.034468 
1168.862496  	0.035204 
1170.791312  	0.036372 
1172.720128  	0.037241 
1174.648944  	0.037975 
1176.577760  	0.038966 
1178.506576  	0.039970 
1180.435392  	0.040829 
1182.364208  	0.041696 
1184.293024  	0.042748 
1186.221840  	0.043970 
1188.150656  	0.045197 
1190.079472  	0.046783 
1192.008288  	0.048598 
1193.937104  	0.050639 
1195.865920  	0.053109 
1197.794736  	0.055596 
1199.723552  	0.058368 
1201.652368  	0.061418 
1203.581184  	0.064627 
1205.510000  	0.067763 
1207.438816  	0.070907 
1209.367632  	0.073998 
1211.296448  	0.076927 
1213.225264  	0.079572 
1215.154080  	0.081988 
1217.082896  	0.084243 
1219.011712  	0.085899 
1220.940528  	0.087457 
1222.869344  	0.088868 
1224.798160  	0.089890 
1226.726976  	0.090843 
1228.655792  	0.091706 
1230.584608  	0.092163 
1232.513424  	0.092049 
1234.442240  	0.091433 
1236.371056  	0.090647 
1238.299872  	0.089237 
1240.228688  	0.087576 
1242.157504  	0.085555 
1244.086320  	0.082898 
1246.015136  	0.079971 
1247.943952  	0.077059 
1249.872768  	0.073859 
1251.801584  	0.070529 
1253.730400  	0.067187 
1255.659216  	0.064112 
1257.588032  	0.061076 
1259.516848  	0.058063 
1261.445664  	0.055197 
1263.374480  	0.052593 
1265.303296  	0.050156 
1267.232112  	0.047984 
1269.160928  	0.046365 
1271.089744  	0.045157 
1273.018560  	0.044369 
1274.947376  	0.043997 
1276.876192  	0.043604 
1278.805008  	0.042984 
1280.733824  	0.042113 
1282.662640  	0.040852 
1284.591456  	0.039053 
1286.520272  	0.037358 
1288.449088  	0.036038 
1290.377904  	0.034939 
1292.306720  	0.034100 
1294.235536  	0.033154 
1296.164352  	0.031707 
1298.093168  	0.030077 
1300.021984  	0.028478 
1301.950800  	0.026949 
1303.879616  	0.025645 
1305.808432  	0.024573 
1307.737248  	0.023589 
1309.666064  	0.022534 
1311.594880  	0.021872 
1313.523696  	0.021497 
1315.452512  	0.021309 
1317.381328  	0.021373 
1319.310144  	0.021533 
1321.238960  	0.021828 
1323.167776  	0.022288 
1325.096592  	0.022600 
1327.025408  	0.022689 
1328.954224  	0.022522 
1330.883040  	0.022165 
1332.811856  	0.021663 
1334.740672  	0.021175 
1336.669488  	0.020555 
1338.598304  	0.020092 
1340.527120  	0.020017 
1342.455936  	0.020036 
1344.384752  	0.019980 
1346.313568  	0.020236 
1348.242384  	0.020719 
1350.171200  	0.021452 
1352.100016  	0.022274 
1354.028832  	0.023060 
1355.957648  	0.024043 
1357.886464  	0.024979 
1359.815280  	0.025564 
1361.744096  	0.026070 
1363.672912  	0.027214 
1365.601728  	0.028046 
1367.530544  	0.028349 
1369.459360  	0.028713 
1371.388176  	0.028588 
1373.316992  	0.028006 
1375.245808  	0.027681 
1377.174624  	0.027144 
1379.103440  	0.026219 
1381.032256  	0.025371 
1382.961072  	0.024603 
1384.889888  	0.023854 
1386.818704  	0.023018 
1388.747520  	0.022523 
1390.676336  	0.022098 
1392.605152  	0.021619 
1394.533968  	0.021113 
1396.462784  	0.020866 
1398.391600  	0.020916 
1400.320416  	0.021697 
1402.249232  	0.022153 
1404.178048  	0.022519 
1406.106864  	0.023274 
1408.035680  	0.024078 
1409.964496  	0.024635 
1411.893312  	0.025392 
1413.822128  	0.026059 
1415.750944  	0.026285 
1417.679760  	0.025899 
1419.608576  	0.026178 
1421.537392  	0.026416 
1423.466208  	0.025920 
1425.395024  	0.025507 
1427.323840  	0.024601 
1429.252656  	0.023467 
1431.181472  	0.022894 
1433.110288  	0.022774 
1435.039104  	0.022444 
1436.967920  	0.022781 
1438.896736  	0.023500 
1440.825552  	0.023733 
1442.754368  	0.023990 
1444.683184  	0.023837 
1446.612000  	0.023579 
1448.540816  	0.023911 
1450.469632  	0.024249 
1452.398448  	0.024181 
1454.327264  	0.023662 
1456.256080  	0.022849 
1458.184896  	0.023529 
1460.113712  	0.024282 
1462.042528  	0.024477 
1463.971344  	0.024279 
1465.900160  	0.025258 
1467.828976  	0.026321 
1469.757792  	0.026998 
1471.686608  	0.027685 
1473.615424  	0.030156 
1475.544240  	0.032062 
1477.473056  	0.033569 
1479.401872  	0.034114 
1481.330688  	0.034434 
1483.259504  	0.034700 
1485.188320  	0.034305 
1487.117136  	0.033268 
1489.045952  	0.032243 
1490.974768  	0.031496 
1492.903584  	0.030448 
1494.832400  	0.028577 
1496.761216  	0.026743 
1498.690032  	0.025389 
1500.618848  	0.024279 
1502.547664  	0.022926 
1504.476480  	0.020978 
1506.405296  	0.018763 
1508.334112  	0.018985 
1510.262928  	0.019109 
1512.191744  	0.018907 
1514.120560  	0.018281 
1516.049376  	0.017718 
1517.978192  	0.018120 
1519.907008  	0.018260 
1521.835824  	0.019194 
1523.764640  	0.020715 
1525.693456  	0.021699 
1527.622272  	0.022773 
1529.551088  	0.023465 
1531.479904  	0.023188 
1533.408720  	0.022763 
1535.337536  	0.022700 
1537.266352  	0.021095 
1539.195168  	0.018718 
1541.123984  	0.018029 
1543.052800  	0.018103 
1544.981616  	0.018038 
1546.910432  	0.018100 
1548.839248  	0.017528 
1550.768064  	0.017684 
1552.696880  	0.017701 
1554.625696  	0.017636 
1556.554512  	0.016914 
1558.483328  	0.016167 
1560.412144  	0.019661 
1562.340960  	0.021314 
1564.269776  	0.022161 
1566.198592  	0.023740 
1568.127408  	0.024638 
1570.056224  	0.027050 
1571.985040  	0.029208 
1573.913856  	0.029592 
1575.842672  	0.029977 
1577.771488  	0.031726 
1579.700304  	0.031973 
1581.629120  	0.031904 
1583.557936  	0.031958 
1585.486752  	0.032557 
1587.415568  	0.033521 
1589.344384  	0.035156 
1591.273200  	0.036990 
1593.202016  	0.039212 
1595.130832  	0.041478 
1597.059648  	0.043957 
1598.988464  	0.045783 
1600.917280  	0.047148 
1602.846096  	0.048000 
1604.774912  	0.048587 
1606.703728  	0.048299 
1608.632544  	0.047954 
1610.561360  	0.047704 
1612.490176  	0.047518 
1614.418992  	0.046651 
1616.347808  	0.046904 
1618.276624  	0.048650 
1620.205440  	0.049692 
1622.134256  	0.050608 
1624.063072  	0.053703 
1625.991888  	0.056253 
1627.920704  	0.059184 
1629.849520  	0.062810 
1631.778336  	0.065508 
1633.707152  	0.066865 
1635.635968  	0.070557 
1637.564784  	0.075326 
1639.493600  	0.077346 
1641.422416  	0.079138 
1643.351232  	0.079996 
1645.280048  	0.079829 
1647.208864  	0.081762 
1649.137680  	0.082867 
1651.066496  	0.080676 
1652.995312  	0.080275 
1654.924128  	0.083471 
1656.852944  	0.082152 
1658.781760  	0.081085 
1660.710576  	0.080050 
1662.639392  	0.079601 
1664.568208  	0.079458 
1666.497024  	0.077886 
1668.425840  	0.076253 
1670.354656  	0.076299 
1672.283472  	0.075949 
1674.212288  	0.075008 
1676.141104  	0.075806 
1678.069920  	0.075689 
1679.998736  	0.075289 
1681.927552  	0.074459 
1683.856368  	0.074316 
1685.785184  	0.077069 
1687.714000  	0.076272 
1689.642816  	0.075844 
1691.571632  	0.075516 
1693.500448  	0.073765 
1695.429264  	0.071802 
1697.358080  	0.071050 
1699.286896  	0.068723 
1701.215712  	0.068825 
1703.144528  	0.066984 
1705.073344  	0.064547 
1707.002160  	0.062912 
1708.930976  	0.060875 
1710.859792  	0.058285 
1712.788608  	0.055087 
1714.717424  	0.051439 
1716.646240  	0.047854 
1718.575056  	0.045202 
1720.503872  	0.042513 
1722.432688  	0.039420 
1724.361504  	0.036195 
1726.290320  	0.033150 
1728.219136  	0.029951 
1730.147952  	0.026876 
1732.076768  	0.024028 
1734.005584  	0.021520 
1735.934400  	0.019857 
1737.863216  	0.018113 
1739.792032  	0.015955 
1741.720848  	0.014608 
1743.649664  	0.013196 
1745.578480  	0.011847 
1747.507296  	0.010322 
1749.436112  	0.009422 
1751.364928  	0.009303 
1753.293744  	0.009353 
1755.222560  	0.008511 
1757.151376  	0.007956 
1759.080192  	0.007674 
1761.009008  	0.007350 
1762.937824  	0.007176 
1764.866640  	0.007056 
1766.795456  	0.006407 
1768.724272  	0.006165 
1770.653088  	0.005359 
1772.581904  	0.005050 
1774.510720  	0.005599 
1776.439536  	0.005955 
1778.368352  	0.005863 
1780.297168  	0.005736 
1782.225984  	0.005672 
1784.154800  	0.005530 
1786.083616  	0.005688 
1788.012432  	0.005721 
1789.941248  	0.005021 
1791.870064  	0.004727 
1793.798880  	0.005057 
1795.727696  	0.005304 
1797.656512  	0.005135 
1799.585328  	0.004783 
1801.514144  	0.004659 
1803.442960  	0.004691 
1805.371776  	0.004632 
1807.300592  	0.004554 
1809.229408  	0.004200 
1811.158224  	0.004179 
1813.087040  	0.004343 
1815.015856  	0.004313 
1816.944672  	0.004198 
1818.873488  	0.004432 
1820.802304  	0.004537 
1822.731120  	0.004376 
1824.659936  	0.003992 
1826.588752  	0.004151 
1828.517568  	0.003873 
1830.446384  	0.004083 
1832.375200  	0.004511 
1834.304016  	0.004409 
1836.232832  	0.004244 
1838.161648  	0.004430 
1840.090464  	0.004285 
1842.019280  	0.003597 
1843.948096  	0.003080 
1845.876912  	0.003541 
1847.805728  	0.003964 
1849.734544  	0.004303 
1851.663360  	0.004136 
1853.592176  	0.004176 
1855.520992  	0.004199 
1857.449808  	0.004340 
1859.378624  	0.004318 
1861.307440  	0.004225 
1863.236256  	0.003998 
1865.165072  	0.003724 
1867.093888  	0.003539 
1869.022704  	0.003939 
1870.951520  	0.004171 
1872.880336  	0.004243 
1874.809152  	0.004179 
1876.737968  	0.004287 
1878.666784  	0.003874 
1880.595600  	0.003815 
1882.524416  	0.004050 
1884.453232  	0.003946 
1886.382048  	0.003700 
1888.310864  	0.003643 
1890.239680  	0.003884 
1892.168496  	0.004185 
1894.097312  	0.003811 
1896.026128  	0.003697 
1897.954944  	0.003427 
1899.883760  	0.003423 
1901.812576  	0.003535 
1903.741392  	0.003710 
1905.670208  	0.003791 
1907.599024  	0.003740 
1909.527840  	0.003510 
1911.456656  	0.003626 
1913.385472  	0.003798 
1915.314288  	0.003837 
1917.243104  	0.003716 
1919.171920  	0.003873 
1921.100736  	0.004095 
1923.029552  	0.004356 
1924.958368  	0.003959 
1926.887184  	0.003958 
1928.816000  	0.003812 
1930.744816  	0.003642 
1932.673632  	0.003421 
1934.602448  	0.003861 
1936.531264  	0.004295 
1938.460080  	0.003949 
1940.388896  	0.003858 
1942.317712  	0.003751 
1944.246528  	0.003650 
1946.175344  	0.004339 
1948.104160  	0.004170 
1950.032976  	0.003680 
1951.961792  	0.003738 
1953.890608  	0.004084 
1955.819424  	0.004360 
1957.748240  	0.004783 
1959.677056  	0.003925 
1961.605872  	0.002962 
1963.534688  	0.002920 
1965.463504  	0.003901 
1967.392320  	0.004122 
1969.321136  	0.003640 
1971.249952  	0.004577 
1973.178768  	0.005124 
1975.107584  	0.003545 
1977.036400  	0.003089 
1978.965216  	0.005126 
1980.894032  	0.005314 
1982.822848  	0.003725 
1984.751664  	0.003656 
1986.680480  	0.004300 
1988.609296  	0.004585 
1990.538112  	0.004509 
1992.466928  	0.004687 
1994.395744  	0.005258 
1996.324560  	0.005188 
1998.253376  	0.004508 
2000.182192  	0.004330 
2002.111008  	0.004197 
2004.039824  	0.004328 
2005.968640  	0.004851 
2007.897456  	0.005272 
2009.826272  	0.004842 
2011.755088  	0.004040 
2013.683904  	0.004794 
2015.612720  	0.005335 
2017.541536  	0.004244 
2019.470352  	0.003534 
2021.399168  	0.003757 
2023.327984  	0.004464 
2025.256800  	0.004098 
2027.185616  	0.004115 
2029.114432  	0.004394 
2031.043248  	0.005110 
2032.972064  	0.005864 
2034.900880  	0.006828 
2036.829696  	0.005965 
2038.758512  	0.005123 
2040.687328  	0.004664 
2042.616144  	0.003966 
2044.544960  	0.004422 
2046.473776  	0.005652 
2048.402592  	0.005317 
2050.331408  	0.006091 
2052.260224  	0.006141 
2054.189040  	0.006018 
2056.117856  	0.005266 
2058.046672  	0.004845 
2059.975488  	0.004344 
2061.904304  	0.004247 
2063.833120  	0.005122 
2065.761936  	0.005765 
2067.690752  	0.005309 
2069.619568  	0.004489 
2071.548384  	0.003840 
2073.477200  	0.004103 
2075.406016  	0.004987 
2077.334832  	0.005417 
2079.263648  	0.004996 
2081.192464  	0.004737 
2083.121280  	0.005133 
2085.050096  	0.005253 
2086.978912  	0.004832 
2088.907728  	0.004609 
2090.836544  	0.004168 
2092.765360  	0.003968 
2094.694176  	0.004412 
2096.622992  	0.004667 
2098.551808  	0.004469 
2100.480624  	0.004304 
2102.409440  	0.004216 
2104.338256  	0.004987 
2106.267072  	0.005194 
2108.195888  	0.004885 
2110.124704  	0.005093 
2112.053520  	0.005586 
2113.982336  	0.005497 
2115.911152  	0.005293 
2117.839968  	0.004847 
2119.768784  	0.004164 
2121.697600  	0.003893 
2123.626416  	0.003794 
2125.555232  	0.003742 
2127.484048  	0.004132 
2129.412864  	0.003982 
2131.341680  	0.003076 
2133.270496  	0.003923 
2135.199312  	0.004960 
2137.128128  	0.004786 
2139.056944  	0.004532 
2140.985760  	0.004195 
2142.914576  	0.004892 
2144.843392  	0.004200 
2146.772208  	0.004356 
2148.701024  	0.004386 
2150.629840  	0.004257 
2152.558656  	0.003860 
2154.487472  	0.003617 
2156.416288  	0.002938 
2158.345104  	0.004456 
2160.273920  	0.006995 
2162.202736  	0.007090 
2164.131552  	0.006517 
2166.060368  	0.006903 
2167.989184  	0.005674 
2169.918000  	0.005018 
2171.846816  	0.004775 
2173.775632  	0.004317 
2175.704448  	0.005344 
2177.633264  	0.006881 
2179.562080  	0.006558 
2181.490896  	0.005354 
2183.419712  	0.005113 
2185.348528  	0.005339 
2187.277344  	0.005251 
2189.206160  	0.005450 
2191.134976  	0.005939 
2193.063792  	0.006942 
2194.992608  	0.007187 
2196.921424  	0.006373 
2198.850240  	0.006678 
2200.779056  	0.006588 
2202.707872  	0.005978 
2204.636688  	0.005839 
2206.565504  	0.006148 
2208.494320  	0.006184 
2210.423136  	0.004918 
2212.351952  	0.005064 
2214.280768  	0.005502 
2216.209584  	0.005202 
2218.138400  	0.005125 
2220.067216  	0.005675 
2221.996032  	0.005683 
2223.924848  	0.005169 
2225.853664  	0.005393 
2227.782480  	0.005658 
2229.711296  	0.006059 
2231.640112  	0.006121 
2233.568928  	0.005695 
2235.497744  	0.005626 
2237.426560  	0.005273 
2239.355376  	0.005111 
2241.284192  	0.004987 
2243.213008  	0.004959 
2245.141824  	0.005263 
2247.070640  	0.004768 
2248.999456  	0.004379 
2250.928272  	0.004939 
2252.857088  	0.004863 
2254.785904  	0.004571 
2256.714720  	0.005388 
2258.643536  	0.006264 
2260.572352  	0.005984 
2262.501168  	0.005633 
2264.429984  	0.005696 
2266.358800  	0.006166 
2268.287616  	0.005931 
2270.216432  	0.005619 
2272.145248  	0.005277 
2274.074064  	0.005288 
2276.002880  	0.005212 
2277.931696  	0.005518 
2279.860512  	0.005737 
2281.789328  	0.005692 
2283.718144  	0.005758 
2285.646960  	0.006175 
2287.575776  	0.006360 
2289.504592  	0.006082 
2291.433408  	0.005649 
2293.362224  	0.005626 
2295.291040  	0.005641 
2297.219856  	0.005909 
2299.148672  	0.006033 
2301.077488  	0.006027 
2303.006304  	0.006359 
2304.935120  	0.006367 
2306.863936  	0.006212 
2308.792752  	0.006487 
2310.721568  	0.006733 
2312.650384  	0.006788 
2314.579200  	0.006842 
2316.508016  	0.006946 
2318.436832  	0.006860 
2320.365648  	0.007060 
2322.294464  	0.007421 
2324.223280  	0.007377 
2326.152096  	0.006871 
2328.080912  	0.006654 
2330.009728  	0.006736 
2331.938544  	0.006762 
2333.867360  	0.006307 
2335.796176  	0.006106 
2337.724992  	0.006102 
2339.653808  	0.006154 
2341.582624  	0.006341 
2343.511440  	0.006842 
2345.440256  	0.006720 
2347.369072  	0.006521 
2349.297888  	0.006208 
2351.226704  	0.005997 
2353.155520  	0.006396 
2355.084336  	0.006778 
2357.013152  	0.006945 
2358.941968  	0.007073 
2360.870784  	0.006857 
2362.799600  	0.006634 
2364.728416  	0.006304 
2366.657232  	0.006506 
2368.586048  	0.006423 
2370.514864  	0.006455 
2372.443680  	0.006544 
2374.372496  	0.006348 
2376.301312  	0.006224 
2378.230128  	0.006148 
2380.158944  	0.005634 
2382.087760  	0.005294 
2384.016576  	0.005298 
2385.945392  	0.005322 
2387.874208  	0.005050 
2389.803024  	0.004879 
2391.731840  	0.004690 
2393.660656  	0.004763 
2395.589472  	0.005002 
2397.518288  	0.005111 
2399.447104  	0.005045 
2401.375920  	0.004882 
2403.304736  	0.004904 
2405.233552  	0.005070 
2407.162368  	0.005341 
2409.091184  	0.005209 
2411.020000  	0.005291 
2412.948816  	0.005555 
2414.877632  	0.005431 
2416.806448  	0.005482 
2418.735264  	0.005715 
2420.664080  	0.005667 
2422.592896  	0.005334 
2424.521712  	0.005174 
2426.450528  	0.005268 
2428.379344  	0.005111 
2430.308160  	0.005006 
2432.236976  	0.005164 
2434.165792  	0.005431 
2436.094608  	0.005722 
2438.023424  	0.005776 
2439.952240  	0.005834 
2441.881056  	0.005878 
2443.809872  	0.005756 
2445.738688  	0.005734 
2447.667504  	0.005823 
2449.596320  	0.005833 
2451.525136  	0.005809 
2453.453952  	0.005763 
2455.382768  	0.005998 
2457.311584  	0.006260 
2459.240400  	0.006159 
2461.169216  	0.005958 
2463.098032  	0.005838 
2465.026848  	0.005843 
2466.955664  	0.005828 
2468.884480  	0.005615 
2470.813296  	0.005754 
2472.742112  	0.005943 
2474.670928  	0.005880 
2476.599744  	0.005831 
2478.528560  	0.005881 
2480.457376  	0.006076 
2482.386192  	0.006157 
2484.315008  	0.006057 
2486.243824  	0.006012 
2488.172640  	0.005884 
2490.101456  	0.005941 
2492.030272  	0.006315 
2493.959088  	0.006137 
2495.887904  	0.005615 
2497.816720  	0.005660 
2499.745536  	0.005975 
2501.674352  	0.006225 
2503.603168  	0.006277 
2505.531984  	0.006042 
2507.460800  	0.005898 
2509.389616  	0.005923 
2511.318432  	0.005859 
2513.247248  	0.005853 
2515.176064  	0.005910 
2517.104880  	0.006336 
2519.033696  	0.006546 
2520.962512  	0.006448 
2522.891328  	0.006540 
2524.820144  	0.006673 
2526.748960  	0.006776 
2528.677776  	0.006743 
2530.606592  	0.006555 
2532.535408  	0.006577 
2534.464224  	0.006845 
2536.393040  	0.006800 
2538.321856  	0.006469 
2540.250672  	0.006590 
2542.179488  	0.006761 
2544.108304  	0.006800 
2546.037120  	0.006639 
2547.965936  	0.006909 
2549.894752  	0.007150 
2551.823568  	0.006984 
2553.752384  	0.006897 
2555.681200  	0.007067 
2557.610016  	0.007171 
2559.538832  	0.007156 
2561.467648  	0.007073 
2563.396464  	0.007359 
2565.325280  	0.007672 
2567.254096  	0.007469 
2569.182912  	0.007103 
2571.111728  	0.006996 
2573.040544  	0.006909 
2574.969360  	0.006824 
2576.898176  	0.007128 
2578.826992  	0.007523 
2580.755808  	0.007498 
2582.684624  	0.007351 
2584.613440  	0.007251 
2586.542256  	0.007445 
2588.471072  	0.007540 
2590.399888  	0.007517 
2592.328704  	0.007548 
2594.257520  	0.007721 
2596.186336  	0.008063 
2598.115152  	0.008098 
2600.043968  	0.007862 
2601.972784  	0.007882 
2603.901600  	0.008007 
2605.830416  	0.008053 
2607.759232  	0.007793 
2609.688048  	0.007843 
2611.616864  	0.007999 
2613.545680  	0.008047 
2615.474496  	0.008101 
2617.403312  	0.008124 
2619.332128  	0.008190 
2621.260944  	0.008259 
2623.189760  	0.008185 
2625.118576  	0.008152 
2627.047392  	0.008191 
2628.976208  	0.008392 
2630.905024  	0.008445 
2632.833840  	0.008512 
2634.762656  	0.008584 
2636.691472  	0.008525 
2638.620288  	0.008397 
2640.549104  	0.008512 
2642.477920  	0.008592 
2644.406736  	0.008532 
2646.335552  	0.008815 
2648.264368  	0.009011 
2650.193184  	0.008955 
2652.122000  	0.008948 
2654.050816  	0.009056 
2655.979632  	0.008991 
2657.908448  	0.008884 
2659.837264  	0.008871 
2661.766080  	0.008853 
2663.694896  	0.008879 
2665.623712  	0.008830 
2667.552528  	0.008755 
2669.481344  	0.008835 
2671.410160  	0.009026 
2673.338976  	0.009082 
2675.267792  	0.009110 
2677.196608  	0.009180 
2679.125424  	0.009262 
2681.054240  	0.009272 
2682.983056  	0.009192 
2684.911872  	0.009237 
2686.840688  	0.009308 
2688.769504  	0.009347 
2690.698320  	0.009387 
2692.627136  	0.009418 
2694.555952  	0.009426 
2696.484768  	0.009306 
2698.413584  	0.009351 
2700.342400  	0.009445 
2702.271216  	0.009571 
2704.200032  	0.009681 
2706.128848  	0.009762 
2708.057664  	0.009774 
2709.986480  	0.009711 
2711.915296  	0.009735 
2713.844112  	0.009861 
2715.772928  	0.009951 
2717.701744  	0.009977 
2719.630560  	0.009979 
2721.559376  	0.009983 
2723.488192  	0.010046 
2725.417008  	0.010179 
2727.345824  	0.010211 
2729.274640  	0.010165 
2731.203456  	0.010163 
2733.132272  	0.010252 
2735.061088  	0.010402 
2736.989904  	0.010493 
2738.918720  	0.010487 
2740.847536  	0.010478 
2742.776352  	0.010556 
2744.705168  	0.010615 
2746.633984  	0.010545 
2748.562800  	0.010682 
2750.491616  	0.010797 
2752.420432  	0.010765 
2754.349248  	0.010768 
2756.278064  	0.010795 
2758.206880  	0.010768 
2760.135696  	0.010871 
2762.064512  	0.010847 
2763.993328  	0.010808 
2765.922144  	0.010844 
2767.850960  	0.010934 
2769.779776  	0.010978 
2771.708592  	0.011010 
2773.637408  	0.010957 
2775.566224  	0.010904 
2777.495040  	0.010814 
2779.423856  	0.010837 
2781.352672  	0.011006 
2783.281488  	0.011038 
2785.210304  	0.010960 
2787.139120  	0.011102 
2789.067936  	0.011276 
2790.996752  	0.011382 
2792.925568  	0.011409 
2794.854384  	0.011384 
2796.783200  	0.011369 
2798.712016  	0.011245 
2800.640832  	0.011209 
2802.569648  	0.011393 
2804.498464  	0.011569 
2806.427280  	0.011644 
2808.356096  	0.011649 
2810.284912  	0.011669 
2812.213728  	0.011680 
2814.142544  	0.011689 
2816.071360  	0.011794 
2818.000176  	0.011823 
2819.928992  	0.011784 
2821.857808  	0.011855 
2823.786624  	0.011956 
2825.715440  	0.012022 
2827.644256  	0.011980 
2829.573072  	0.012116 
2831.501888  	0.012251 
2833.430704  	0.012190 
2835.359520  	0.012158 
2837.288336  	0.012248 
2839.217152  	0.012316 
2841.145968  	0.012251 
2843.074784  	0.012212 
2845.003600  	0.012261 
2846.932416  	0.012412 
2848.861232  	0.012522 
2850.790048  	0.012506 
2852.718864  	0.012502 
2854.647680  	0.012541 
2856.576496  	0.012654 
2858.505312  	0.012672 
2860.434128  	0.012692 
2862.362944  	0.012800 
2864.291760  	0.012892 
2866.220576  	0.013003 
2868.149392  	0.013297 
2870.078208  	0.013538 
2872.007024  	0.013636 
2873.935840  	0.013742 
2875.864656  	0.013862 
2877.793472  	0.014171 
2879.722288  	0.014441 
2881.651104  	0.014605 
2883.579920  	0.014681 
2885.508736  	0.014808 
2887.437552  	0.014923 
2889.366368  	0.015010 
2891.295184  	0.015204 
2893.224000  	0.015397 
2895.152816  	0.015385 
2897.081632  	0.015233 
2899.010448  	0.015417 
2900.939264  	0.015713 
2902.868080  	0.015755 
2904.796896  	0.015791 
2906.725712  	0.015859 
2908.654528  	0.015966 
2910.583344  	0.016167 
2912.512160  	0.016546 
2914.440976  	0.016797 
2916.369792  	0.016845 
2918.298608  	0.016984 
2920.227424  	0.017245 
2922.156240  	0.017558 
2924.085056  	0.017583 
2926.013872  	0.017674 
2927.942688  	0.018008 
2929.871504  	0.018209 
2931.800320  	0.018236 
2933.729136  	0.018314 
2935.657952  	0.018334 
2937.586768  	0.018476 
2939.515584  	0.018538 
2941.444400  	0.018693 
2943.373216  	0.018967 
2945.302032  	0.019061 
2947.230848  	0.019159 
2949.159664  	0.019284 
2951.088480  	0.019374 
2953.017296  	0.019553 
2954.946112  	0.019423 
2956.874928  	0.019253 
2958.803744  	0.019190 
2960.732560  	0.019099 
2962.661376  	0.019065 
2964.590192  	0.018963 
2966.519008  	0.018919 
2968.447824  	0.018758 
2970.376640  	0.018595 
2972.305456  	0.018390 
2974.234272  	0.018186 
2976.163088  	0.018142 
2978.091904  	0.018114 
2980.020720  	0.018027 
2981.949536  	0.017866 
2983.878352  	0.017712 
2985.807168  	0.017701 
2987.735984  	0.017804 
2989.664800  	0.017798 
2991.593616  	0.017591 
2993.522432  	0.017422 
2995.451248  	0.017431 
2997.380064  	0.017613 
2999.308880  	0.017699 
3001.237696  	0.017573 
3003.166512  	0.017502 
3005.095328  	0.017521 
3007.024144  	0.017581 
3008.952960  	0.017600 
3010.881776  	0.017665 
3012.810592  	0.017694 
3014.739408  	0.017693 
3016.668224  	0.017794 
3018.597040  	0.017770 
3020.525856  	0.017625 
3022.454672  	0.017507 
3024.383488  	0.017569 
3026.312304  	0.017753 
3028.241120  	0.017849 
3030.169936  	0.017681 
3032.098752  	0.017804 
3034.027568  	0.017776 
3035.956384  	0.017667 
3037.885200  	0.017844 
3039.814016  	0.018075 
3041.742832  	0.018268 
3043.671648  	0.018313 
3045.600464  	0.018278 
3047.529280  	0.018296 
3049.458096  	0.018461 
3051.386912  	0.018356 
3053.315728  	0.018384 
3055.244544  	0.018764 
3057.173360  	0.019081 
3059.102176  	0.019127 
3061.030992  	0.019187 
3062.959808  	0.019399 
3064.888624  	0.019557 
3066.817440  	0.019608 
3068.746256  	0.019676 
3070.675072  	0.019833 
3072.603888  	0.020055 
3074.532704  	0.020294 
3076.461520  	0.020495 
3078.390336  	0.020602 
3080.319152  	0.020871 
3082.247968  	0.021161 
3084.176784  	0.021427 
3086.105600  	0.021467 
3088.034416  	0.021513 
3089.963232  	0.021782 
3091.892048  	0.022025 
3093.820864  	0.021972 
3095.749680  	0.022084 
3097.678496  	0.022167 
3099.607312  	0.022411 
3101.536128  	0.022540 
3103.464944  	0.022683 
3105.393760  	0.022980 
3107.322576  	0.023233 
3109.251392  	0.023298 
3111.180208  	0.023296 
3113.109024  	0.023305 
3115.037840  	0.023439 
3116.966656  	0.023707 
3118.895472  	0.023860 
3120.824288  	0.023853 
3122.753104  	0.023987 
3124.681920  	0.024167 
3126.610736  	0.024304 
3128.539552  	0.024473 
3130.468368  	0.024566 
3132.397184  	0.024598 
3134.326000  	0.024670 
3136.254816  	0.024749 
3138.183632  	0.024893 
3140.112448  	0.024916 
3142.041264  	0.024931 
3143.970080  	0.025093 
3145.898896  	0.025235 
3147.827712  	0.025384 
3149.756528  	0.025552 
3151.685344  	0.025783 
3153.614160  	0.025940 
3155.542976  	0.025951 
3157.471792  	0.026035 
3159.400608  	0.026384 
3161.329424  	0.026714 
3163.258240  	0.026966 
3165.187056  	0.027070 
3167.115872  	0.026925 
3169.044688  	0.026833 
3170.973504  	0.026800 
3172.902320  	0.026903 
3174.831136  	0.027032 
3176.759952  	0.027218 
3178.688768  	0.027457 
3180.617584  	0.027463 
3182.546400  	0.027240 
3184.475216  	0.027397 
3186.404032  	0.027569 
3188.332848  	0.027629 
3190.261664  	0.027860 
3192.190480  	0.027846 
3194.119296  	0.027651 
3196.048112  	0.027671 
3197.976928  	0.027880 
3199.905744  	0.027992 
3201.834560  	0.028009 
3203.763376  	0.028017 
3205.692192  	0.028005 
3207.621008  	0.027931 
3209.549824  	0.027825 
3211.478640  	0.027786 
3213.407456  	0.027621 
3215.336272  	0.027639 
3217.265088  	0.027590 
3219.193904  	0.027412 
3221.122720  	0.027164 
3223.051536  	0.027173 
3224.980352  	0.027179 
3226.909168  	0.027040 
3228.837984  	0.027030 
3230.766800  	0.027046 
3232.695616  	0.027143 
3234.624432  	0.027156 
3236.553248  	0.027042 
3238.482064  	0.026976 
3240.410880  	0.026950 
3242.339696  	0.026832 
3244.268512  	0.026887 
3246.197328  	0.026922 
3248.126144  	0.026828 
3250.054960  	0.026913 
3251.983776  	0.026851 
3253.912592  	0.026764 
3255.841408  	0.026772 
3257.770224  	0.026953 
3259.699040  	0.027080 
3261.627856  	0.027106 
3263.556672  	0.027088 
3265.485488  	0.027095 
3267.414304  	0.027313 
3269.343120  	0.027398 
3271.271936  	0.027419 
3273.200752  	0.027553 
3275.129568  	0.027532 
3277.058384  	0.027312 
3278.987200  	0.027486 
3280.916016  	0.027611 
3282.844832  	0.027532 
3284.773648  	0.027499 
3286.702464  	0.027599 
3288.631280  	0.027902 
3290.560096  	0.028077 
3292.488912  	0.028028 
3294.417728  	0.027977 
3296.346544  	0.028031 
3298.275360  	0.028123 
3300.204176  	0.028275 
3302.132992  	0.028266 
3304.061808  	0.028444 
3305.990624  	0.028704 
3307.919440  	0.028741 
3309.848256  	0.028692 
3311.777072  	0.028677 
3313.705888  	0.028879 
3315.634704  	0.029177 
3317.563520  	0.029230 
3319.492336  	0.029259 
3321.421152  	0.029316 
3323.349968  	0.029484 
3325.278784  	0.029625 
3327.207600  	0.029647 
3329.136416  	0.029596 
3331.065232  	0.029494 
3332.994048  	0.029620 
3334.922864  	0.029665 
3336.851680  	0.029592 
3338.780496  	0.029575 
3340.709312  	0.029590 
3342.638128  	0.029607 
3344.566944  	0.029582 
3346.495760  	0.029558 
3348.424576  	0.029519 
3350.353392  	0.029412 
3352.282208  	0.029332 
3354.211024  	0.029269 
3356.139840  	0.029259 
3358.068656  	0.029163 
3359.997472  	0.028955 
3361.926288  	0.028830 
3363.855104  	0.028587 
3365.783920  	0.028403 
3367.712736  	0.028446 
3369.641552  	0.028279 
3371.570368  	0.028065 
3373.499184  	0.028022 
3375.428000  	0.027828 
3377.356816  	0.027666 
3379.285632  	0.027654 
3381.214448  	0.027636 
3383.143264  	0.027629 
3385.072080  	0.027738 
3387.000896  	0.027555 
3388.929712  	0.027337 
3390.858528  	0.027164 
3392.787344  	0.027035 
3394.716160  	0.026626 
3396.644976  	0.026454 
3398.573792  	0.026549 
3400.502608  	0.026319 
3402.431424  	0.025983 
3404.360240  	0.025884 
3406.289056  	0.025753 
3408.217872  	0.025627 
3410.146688  	0.025588 
3412.075504  	0.025659 
3414.004320  	0.025716 
3415.933136  	0.025378 
3417.861952  	0.024947 
3419.790768  	0.024745 
3421.719584  	0.024669 
3423.648400  	0.024475 
3425.577216  	0.024522 
3427.506032  	0.024599 
3429.434848  	0.024338 
3431.363664  	0.024045 
3433.292480  	0.023896 
3435.221296  	0.023949 
3437.150112  	0.023806 
3439.078928  	0.023585 
3441.007744  	0.023546 
3442.936560  	0.023554 
3444.865376  	0.023244 
3446.794192  	0.022738 
3448.723008  	0.022615 
3450.651824  	0.022418 
3452.580640  	0.022202 
3454.509456  	0.022009 
3456.438272  	0.021750 
3458.367088  	0.021733 
3460.295904  	0.021792 
3462.224720  	0.021668 
3464.153536  	0.021316 
3466.082352  	0.021084 
3468.011168  	0.021047 
3469.939984  	0.020842 
3471.868800  	0.020527 
3473.797616  	0.020350 
3475.726432  	0.020210 
3477.655248  	0.020006 
3479.584064  	0.019766 
3481.512880  	0.019617 
3483.441696  	0.019259 
3485.370512  	0.018768 
3487.299328  	0.018560 
3489.228144  	0.018496 
3491.156960  	0.018234 
3493.085776  	0.018176 
3495.014592  	0.018103 
3496.943408  	0.017944 
3498.872224  	0.017645 
3500.801040  	0.017272 
3502.729856  	0.016893 
3504.658672  	0.016879 
3506.587488  	0.016600 
3508.516304  	0.016319 
3510.445120  	0.016435 
3512.373936  	0.016541 
3514.302752  	0.016371 
3516.231568  	0.016062 
3518.160384  	0.015817 
3520.089200  	0.015708 
3522.018016  	0.015498 
3523.946832  	0.015278 
3525.875648  	0.014981 
3527.804464  	0.014643 
3529.733280  	0.014768 
3531.662096  	0.014825 
3533.590912  	0.014471 
3535.519728  	0.014273 
3537.448544  	0.014397 
3539.377360  	0.014278 
3541.306176  	0.013787 
3543.234992  	0.013225 
3545.163808  	0.013232 
3547.092624  	0.013268 
3549.021440  	0.012950 
3550.950256  	0.012630 
3552.879072  	0.012659 
3554.807888  	0.012831 
3556.736704  	0.012826 
3558.665520  	0.012617 
3560.594336  	0.012512 
3562.523152  	0.012185 
3564.451968  	0.011590 
3566.380784  	0.011105 
3568.309600  	0.011275 
3570.238416  	0.011356 
3572.167232  	0.011096 
3574.096048  	0.011076 
3576.024864  	0.011016 
3577.953680  	0.010657 
3579.882496  	0.010413 
3581.811312  	0.010532 
3583.740128  	0.010204 
3585.668944  	0.009355 
3587.597760  	0.009203 
3589.526576  	0.009772 
3591.455392  	0.009519 
3593.384208  	0.009095 
3595.313024  	0.008761 
3597.241840  	0.008572 
3599.170656  	0.008523 
3601.099472  	0.008581 
3603.028288  	0.008420 
3604.957104  	0.008018 
3606.885920  	0.007448 
3608.814736  	0.007449 
3610.743552  	0.007177 
3612.672368  	0.006661 
3614.601184  	0.006567 
3616.530000  	0.005892 
3618.458816  	0.005485 
3620.387632  	0.006056 
3622.316448  	0.006317 
3624.245264  	0.006089 
3626.174080  	0.005233 
3628.102896  	0.004288 
3630.031712  	0.005103 
3631.960528  	0.005341 
3633.889344  	0.004903 
3635.818160  	0.004547 
3637.746976  	0.004480 
3639.675792  	0.004651 
3641.604608  	0.004589 
3643.533424  	0.004267 
3645.462240  	0.003523 
3647.391056  	0.002495 
3649.319872  	0.002192 
3651.248688  	0.003396 
3653.177504  	0.003676 
3655.106320  	0.002981 
3657.035136  	0.003090 
3658.963952  	0.003431 
3660.892768  	0.003090 
3662.821584  	0.002886 
3664.750400  	0.002950 
3666.679216  	0.002505 
3668.608032  	0.001538 
3670.536848  	0.001800 
3672.465664  	0.002129 
3674.394480  	0.000884 
3676.323296  	0.001476 
3678.252112  	0.002157 
3680.180928  	0.002283 
3682.109744  	0.002397 
3684.038560  	0.002321 
3685.967376  	0.001760 
3687.896192  	0.001047 
3689.825008  	0.001279 
3691.753824  	0.001981 
3693.682640  	0.002100 
3695.611456  	0.001915 
3697.540272  	0.001915 
3699.469088  	0.001661 
3701.397904  	0.001937 
3703.326720  	0.002297 
3705.255536  	0.002020 
3707.184352  	0.001315 
3709.113168  	0.000856 
3711.041984  	0.000786 
3712.970800  	0.001145 
3714.899616  	0.001521 
3716.828432  	0.001716 
3718.757248  	0.001423 
3720.686064  	0.001028 
3722.614880  	0.001186 
3724.543696  	0.001204 
3726.472512  	0.001364 
3728.401328  	0.001496 
3730.330144  	0.000847 
3732.258960  	0.000170 
3734.187776  	0.000096 
3736.116592  	0.000956 
3738.045408  	0.001297 
3739.974224  	0.001023 
3741.903040  	0.000543 
3743.831856  	0.000395 
3745.760672  	0.000886 
3747.689488  	0.000325 
3749.618304  	-0.000132 
3751.547120  	0.000397 
3753.475936  	0.001313 
3755.404752  	0.001221 
3757.333568  	0.000787 
3759.262384  	0.000836 
3761.191200  	0.001562 
3763.120016  	0.001478 
3765.048832  	0.001176 
3766.977648  	0.001129 
3768.906464  	0.001092 
3770.835280  	0.001461 
3772.764096  	0.001779 
3774.692912  	0.001710 
3776.621728  	0.001421 
3778.550544  	0.001140 
3780.479360  	0.001388 
3782.408176  	0.001529 
3784.336992  	0.001349 
3786.265808  	0.001428 
3788.194624  	0.001570 
3790.123440  	0.001499 
3792.052256  	0.001438 
3793.981072  	0.001230 
3795.909888  	0.001266 
3797.838704  	0.001381 
3799.767520  	0.000705 
3801.696336  	0.000747 
3803.625152  	0.001237 
3805.553968  	0.000928 
3807.482784  	0.001084 
3809.411600  	0.001510 
3811.340416  	0.001626 
3813.269232  	0.001402 
3815.198048  	0.000773 
3817.126864  	0.000755 
3819.055680  	0.000305 
3820.984496  	0.000403 
3822.913312  	0.001360 
3824.842128  	0.001158 
3826.770944  	0.001051 
3828.699760  	0.001192 
3830.628576  	0.000981 
3832.557392  	0.001136 
3834.486208  	0.000777 
3836.415024  	0.000167 
3838.343840  	0.000204 
3840.272656  	0.000359 
3842.201472  	0.000573 
3844.130288  	0.001025 
3846.059104  	0.001491 
3847.987920  	0.001344 
3849.916736  	0.000758 
3851.845552  	-0.000213 
3853.774368  	0.000372 
3855.703184  	0.001122 
3857.632000  	0.000924 
3859.560816  	0.000848 
3861.489632  	0.000801 
3863.418448  	0.000812 
3865.347264  	0.000898 
3867.276080  	0.000762 
3869.204896  	0.000486 
3871.133712  	0.001187 
3873.062528  	0.001059 
3874.991344  	0.001167 
3876.920160  	0.001204 
3878.848976  	0.000869 
3880.777792  	0.001019 
3882.706608  	0.001396 
3884.635424  	0.000902 
3886.564240  	0.001161 
3888.493056  	0.001360 
3890.421872  	0.001243 
3892.350688  	0.001401 
3894.279504  	0.001356 
3896.208320  	0.001398 
3898.137136  	0.001230 
3900.065952  	0.000986 
3901.994768  	0.000865 
3903.923584  	0.001105 
3905.852400  	0.001436 
3907.781216  	0.001545 
3909.710032  	0.001546 
3911.638848  	0.001539 
3913.567664  	0.001521 
3915.496480  	0.001483 
3917.425296  	0.001729 
3919.354112  	0.001634 
3921.282928  	0.001495 
3923.211744  	0.001376 
3925.140560  	0.001483 
3927.069376  	0.001530 
3928.998192  	0.001355 
3930.927008  	0.001271 
3932.855824  	0.001452 
3934.784640  	0.001605 
3936.713456  	0.001807 
3938.642272  	0.001671 
3940.571088  	0.001339 
3942.499904  	0.001459 
3944.428720  	0.001751 
3946.357536  	0.001556 
3948.286352  	0.001257 
3950.215168  	0.001178 
3952.143984  	0.001338 
3954.072800  	0.001368 
3956.001616  	0.001362 
3957.930432  	0.001461 
3959.859248  	0.001678 
3961.788064  	0.001683 
3963.716880  	0.001596 
3965.645696  	0.001565 
3967.574512  	0.001822 
3969.503328  	0.001856 
3971.432144  	0.001518 
3973.360960  	0.001337 
3975.289776  	0.001433 
3977.218592  	0.001517 
3979.147408  	0.001651 
3981.076224  	0.001540 
3983.005040  	0.001404 
3984.933856  	0.001546 
3986.862672  	0.001621 
3988.791488  	0.001517 
3990.720304  	0.001584 
3992.649120  	0.001642 
3994.577936  	0.001518 
3996.506752  	0.001449 
3998.435568  	0.001509 
4000.364384  	0.001534 