##TITLE=No Description
##DATA TYPE=INFRARED SPECTRUM
##XUNITS=1/CM
##YUNITS=Abs
399.264912  	0.600385 
401.193728  	0.576991 
403.122544  	0.585116 
405.051360  	0.587758 
406.980176  	0.578290 
408.908992  	0.575559 
410.837808  	0.581997 
412.766624  	0.578094 
414.695440  	0.579252 
416.624256  	0.566977 
418.553072  	0.556613 
420.481888  	0.552656 
422.410704  	0.556185 
424.339520  	0.544860 
426.268336  	0.550701 
428.197152  	0.554518 
430.125968  	0.554016 
432.054784  	0.548297 
433.983600  	0.546153 
435.912416  	0.538353 
437.841232  	0.536880 
439.770048  	0.533622 
441.698864  	0.535712 
443.627680  	0.530210 
445.556496  	0.520573 
447.485312  	0.514132 
449.414128  	0.516129 
451.342944  	0.512053 
453.271760  	0.514425 
455.200576  	0.513034 
457.129392  	0.511088 
459.058208  	0.509279 
460.987024  	0.512739 
462.915840  	0.508682 
464.844656  	0.508646 
466.773472  	0.508028 
468.702288  	0.511360 
470.631104  	0.513509 
472.559920  	0.511752 
474.488736  	0.499608 
476.417552  	0.498266 
478.346368  	0.500070 
480.275184  	0.505014 
482.204000  	0.502336 
484.132816  	0.498649 
486.061632  	0.494161 
487.990448  	0.495215 
489.919264  	0.492594 
491.848080  	0.491153 
493.776896  	0.488696 
495.705712  	0.489268 
497.634528  	0.486746 
499.563344  	0.487201 
501.492160  	0.484374 
503.420976  	0.486126 
505.349792  	0.485957 
507.278608  	0.486764 
509.207424  	0.484461 
511.136240  	0.485472 
513.065056  	0.485156 
514.993872  	0.483737 
516.922688  	0.481839 
518.851504  	0.481470 
520.780320  	0.478919 
522.709136  	0.479697 
524.637952  	0.476936 
526.566768  	0.476561 
528.495584  	0.476587 
530.424400  	0.475143 
532.353216  	0.470058 
534.282032  	0.467083 
536.210848  	0.464378 
538.139664  	0.462076 
540.068480  	0.457932 
541.997296  	0.454712 
543.926112  	0.450530 
545.854928  	0.449737 
547.783744  	0.446660 
549.712560  	0.444113 
551.641376  	0.440564 
553.570192  	0.437865 
555.499008  	0.435217 
557.427824  	0.433639 
559.356640  	0.430619 
561.285456  	0.427707 
563.214272  	0.424150 
565.143088  	0.421568 
567.071904  	0.417980 
569.000720  	0.415721 
570.929536  	0.412299 
572.858352  	0.409536 
574.787168  	0.407031 
576.715984  	0.405191 
578.644800  	0.401519 
580.573616  	0.398465 
582.502432  	0.395060 
584.431248  	0.393236 
586.360064  	0.391824 
588.288880  	0.390224 
590.217696  	0.387230 
592.146512  	0.385088 
594.075328  	0.383152 
596.004144  	0.381288 
597.932960  	0.378997 
599.861776  	0.377746 
601.790592  	0.376142 
603.719408  	0.374725 
605.648224  	0.372360 
607.577040  	0.371098 
609.505856  	0.370108 
611.434672  	0.369066 
613.363488  	0.366189 
615.292304  	0.363945 
617.221120  	0.361582 
619.149936  	0.360860 
621.078752  	0.358986 
623.007568  	0.357209 
624.936384  	0.355483 
626.865200  	0.354192 
628.794016  	0.353019 
630.722832  	0.351651 
632.651648  	0.349110 
634.580464  	0.347421 
636.509280  	0.346734 
638.438096  	0.345653 
640.366912  	0.344235 
642.295728  	0.342955 
644.224544  	0.340606 
646.153360  	0.338376 
648.082176  	0.335788 
650.010992  	0.333521 
651.939808  	0.330035 
653.868624  	0.326892 
655.797440  	0.323691 
657.726256  	0.321323 
659.655072  	0.317914 
661.583888  	0.314304 
663.512704  	0.310821 
665.441520  	0.308714 
667.370336  	0.305187 
669.299152  	0.300889 
671.227968  	0.299778 
673.156784  	0.297829 
675.085600  	0.295597 
677.014416  	0.293737 
678.943232  	0.291348 
680.872048  	0.288866 
682.800864  	0.286727 
684.729680  	0.285620 
686.658496  	0.283517 
688.587312  	0.281446 
690.516128  	0.279262 
692.444944  	0.278017 
694.373760  	0.275940 
696.302576  	0.274000 
698.231392  	0.271832 
700.160208  	0.269279 
702.089024  	0.266561 
704.017840  	0.265252 
705.946656  	0.262999 
707.875472  	0.260396 
709.804288  	0.258160 
711.733104  	0.256456 
713.661920  	0.254599 
715.590736  	0.253412 
717.519552  	0.252216 
719.448368  	0.251709 
721.377184  	0.250936 
723.306000  	0.250176 
725.234816  	0.249232 
727.163632  	0.247913 
729.092448  	0.245772 
731.021264  	0.243580 
732.950080  	0.241088 
734.878896  	0.238739 
736.807712  	0.236747 
738.736528  	0.234971 
740.665344  	0.233077 
742.594160  	0.231630 
744.522976  	0.229664 
746.451792  	0.228038 
748.380608  	0.226819 
750.309424  	0.225677 
752.238240  	0.224422 
754.167056  	0.223462 
756.095872  	0.222259 
758.024688  	0.220757 
759.953504  	0.219379 
761.882320  	0.218579 
763.811136  	0.217902 
765.739952  	0.216762 
767.668768  	0.215009 
769.597584  	0.213105 
771.526400  	0.211946 
773.455216  	0.212228 
775.384032  	0.212719 
777.312848  	0.213791 
779.241664  	0.215190 
781.170480  	0.214976 
783.099296  	0.212234 
785.028112  	0.208560 
786.956928  	0.204286 
788.885744  	0.200579 
790.814560  	0.197788 
792.743376  	0.195719 
794.672192  	0.193527 
796.601008  	0.191951 
798.529824  	0.190012 
800.458640  	0.187330 
802.387456  	0.184223 
804.316272  	0.182349 
806.245088  	0.181191 
808.173904  	0.180096 
810.102720  	0.179039 
812.031536  	0.178151 
813.960352  	0.177235 
815.889168  	0.176364 
817.817984  	0.175384 
819.746800  	0.174336 
821.675616  	0.173281 
823.604432  	0.172156 
825.533248  	0.170807 
827.462064  	0.169206 
829.390880  	0.167674 
831.319696  	0.166327 
833.248512  	0.164943 
835.177328  	0.163033 
837.106144  	0.160726 
839.034960  	0.158457 
840.963776  	0.156297 
842.892592  	0.154372 
844.821408  	0.152019 
846.750224  	0.149670 
848.679040  	0.147943 
850.607856  	0.146384 
852.536672  	0.144798 
854.465488  	0.143333 
856.394304  	0.142075 
858.323120  	0.140848 
860.251936  	0.139408 
862.180752  	0.137940 
864.109568  	0.136443 
866.038384  	0.135091 
867.967200  	0.133836 
869.896016  	0.132479 
871.824832  	0.131144 
873.753648  	0.130152 
875.682464  	0.129833 
877.611280  	0.129779 
879.540096  	0.129625 
881.468912  	0.129719 
883.397728  	0.129648 
885.326544  	0.129221 
887.255360  	0.128487 
889.184176  	0.127796 
891.112992  	0.126788 
893.041808  	0.125012 
894.970624  	0.123282 
896.899440  	0.121508 
898.828256  	0.119056 
900.757072  	0.116467 
902.685888  	0.114396 
904.614704  	0.113176 
906.543520  	0.112461 
908.472336  	0.112478 
910.401152  	0.113126 
912.329968  	0.114172 
914.258784  	0.115219 
916.187600  	0.116210 
918.116416  	0.116822 
920.045232  	0.116848 
921.974048  	0.116230 
923.902864  	0.115308 
925.831680  	0.114139 
927.760496  	0.113024 
929.689312  	0.112044 
931.618128  	0.111526 
933.546944  	0.111146 
935.475760  	0.110460 
937.404576  	0.109847 
939.333392  	0.109709 
941.262208  	0.109979 
943.191024  	0.110779 
945.119840  	0.112328 
947.048656  	0.114378 
948.977472  	0.117146 
950.906288  	0.120539 
952.835104  	0.124171 
954.763920  	0.127663 
956.692736  	0.130905 
958.621552  	0.133640 
960.550368  	0.135127 
962.479184  	0.135532 
964.408000  	0.134528 
966.336816  	0.131861 
968.265632  	0.127544 
970.194448  	0.122581 
972.123264  	0.116915 
974.052080  	0.110818 
975.980896  	0.104798 
977.909712  	0.098995 
979.838528  	0.094008 
981.767344  	0.089768 
983.696160  	0.086721 
985.624976  	0.084956 
987.553792  	0.084523 
989.482608  	0.085209 
991.411424  	0.086826 
993.340240  	0.089368 
995.269056  	0.092855 
997.197872  	0.096700 
999.126688  	0.100359 
1001.055504  	0.103997 
1002.984320  	0.107776 
1004.913136  	0.111500 
1006.841952  	0.114770 
1008.770768  	0.117611 
1010.699584  	0.119964 
1012.628400  	0.121696 
1014.557216  	0.122808 
1016.486032  	0.123653 
1018.414848  	0.124008 
1020.343664  	0.124258 
1022.272480  	0.124520 
1024.201296  	0.124868 
1026.130112  	0.125140 
1028.058928  	0.125417 
1029.987744  	0.125435 
1031.916560  	0.126579 
1033.845376  	0.128323 
1035.774192  	0.130130 
1037.703008  	0.132373 
1039.631824  	0.135607 
1041.560640  	0.139446 
1043.489456  	0.144475 
1045.418272  	0.150834 
1047.347088  	0.158454 
1049.275904  	0.166260 
1051.204720  	0.173814 
1053.133536  	0.180385 
1055.062352  	0.186119 
1056.991168  	0.190456 
1058.919984  	0.193053 
1060.848800  	0.193767 
1062.777616  	0.194451 
1064.706432  	0.194516 
1066.635248  	0.193610 
1068.564064  	0.191294 
1070.492880  	0.188759 
1072.421696  	0.185893 
1074.350512  	0.183062 
1076.279328  	0.180570 
1078.208144  	0.179118 
1080.136960  	0.178264 
1082.065776  	0.177086 
1083.994592  	0.175411 
1085.923408  	0.173971 
1087.852224  	0.172283 
1089.781040  	0.170162 
1091.709856  	0.166569 
1093.638672  	0.162698 
1095.567488  	0.158033 
1097.496304  	0.153237 
1099.425120  	0.147714 
1101.353936  	0.141613 
1103.282752  	0.135256 
1105.211568  	0.128778 
1107.140384  	0.122166 
1109.069200  	0.115656 
1110.998016  	0.109422 
1112.926832  	0.103566 
1114.855648  	0.097696 
1116.784464  	0.091872 
1118.713280  	0.086833 
1120.642096  	0.082357 
1122.570912  	0.077883 
1124.499728  	0.073666 
1126.428544  	0.069795 
1128.357360  	0.066322 
1130.286176  	0.063088 
1132.214992  	0.060383 
1134.143808  	0.058137 
1136.072624  	0.056071 
1138.001440  	0.053898 
1139.930256  	0.051781 
1141.859072  	0.049971 
1143.787888  	0.048046 
1145.716704  	0.046456 
1147.645520  	0.045223 
1149.574336  	0.044119 
1151.503152  	0.043378 
1153.431968  	0.042999 
1155.360784  	0.042692 
1157.289600  	0.042744 
1159.218416  	0.043187 
1161.147232  	0.044063 
1163.076048  	0.044893 
1165.004864  	0.045680 
1166.933680  	0.046408 
1168.862496  	0.047503 
1170.791312  	0.048847 
1172.720128  	0.050000 
1174.648944  	0.050897 
1176.577760  	0.052215 
1178.506576  	0.053669 
1180.435392  	0.054974 
1182.364208  	0.056223 
1184.293024  	0.057579 
1186.221840  	0.059043 
1188.150656  	0.060619 
1190.079472  	0.062524 
1192.008288  	0.064880 
1193.937104  	0.067580 
1195.865920  	0.070730 
1197.794736  	0.074051 
1199.723552  	0.077906 
1201.652368  	0.082012 
1203.581184  	0.086119 
1205.510000  	0.090090 
1207.438816  	0.094276 
1209.367632  	0.098420 
1211.296448  	0.102382 
1213.225264  	0.106108 
1215.154080  	0.109283 
1217.082896  	0.112059 
1219.011712  	0.114445 
1220.940528  	0.116762 
1222.869344  	0.118630 
1224.798160  	0.120192 
1226.726976  	0.121366 
1228.655792  	0.122298 
1230.584608  	0.122915 
1232.513424  	0.123149 
1234.442240  	0.122201 
1236.371056  	0.120748 
1238.299872  	0.119132 
1240.228688  	0.117263 
1242.157504  	0.114488 
1244.086320  	0.110936 
1246.015136  	0.107091 
1247.943952  	0.103063 
1249.872768  	0.098859 
1251.801584  	0.094510 
1253.730400  	0.090201 
1255.659216  	0.086148 
1257.588032  	0.082020 
1259.516848  	0.077952 
1261.445664  	0.074203 
1263.374480  	0.070741 
1265.303296  	0.067465 
1267.232112  	0.064625 
1269.160928  	0.062445 
1271.089744  	0.060856 
1273.018560  	0.059855 
1274.947376  	0.059224 
1276.876192  	0.058595 
1278.805008  	0.057851 
1280.733824  	0.056693 
1282.662640  	0.054893 
1284.591456  	0.052616 
1286.520272  	0.050344 
1288.449088  	0.048552 
1290.377904  	0.047144 
1292.306720  	0.046007 
1294.235536  	0.044768 
1296.164352  	0.042864 
1298.093168  	0.040681 
1300.021984  	0.038568 
1301.950800  	0.036460 
1303.879616  	0.034633 
1305.808432  	0.033110 
1307.737248  	0.031748 
1309.666064  	0.030493 
1311.594880  	0.029569 
1313.523696  	0.028995 
1315.452512  	0.028772 
1317.381328  	0.028773 
1319.310144  	0.029024 
1321.238960  	0.029448 
1323.167776  	0.030055 
1325.096592  	0.030514 
1327.025408  	0.030619 
1328.954224  	0.030392 
1330.883040  	0.030036 
1332.811856  	0.029435 
1334.740672  	0.028856 
1336.669488  	0.028107 
1338.598304  	0.027474 
1340.527120  	0.027257 
1342.455936  	0.027366 
1344.384752  	0.027407 
1346.313568  	0.027659 
1348.242384  	0.028223 
1350.171200  	0.029212 
1352.100016  	0.030347 
1354.028832  	0.031480 
1355.957648  	0.032847 
1357.886464  	0.034306 
1359.815280  	0.035247 
1361.744096  	0.035940 
1363.672912  	0.037274 
1365.601728  	0.038507 
1367.530544  	0.039092 
1369.459360  	0.039521 
1371.388176  	0.039384 
1373.316992  	0.038573 
1375.245808  	0.037944 
1377.174624  	0.037418 
1379.103440  	0.036325 
1381.032256  	0.035223 
1382.961072  	0.034228 
1384.889888  	0.033286 
1386.818704  	0.031992 
1388.747520  	0.031188 
1390.676336  	0.030792 
1392.605152  	0.030376 
1394.533968  	0.029530 
1396.462784  	0.029066 
1398.391600  	0.029163 
1400.320416  	0.030135 
1402.249232  	0.030954 
1404.178048  	0.031552 
1406.106864  	0.032550 
1408.035680  	0.033659 
1409.964496  	0.034491 
1411.893312  	0.035496 
1413.822128  	0.036367 
1415.750944  	0.036811 
1417.679760  	0.036441 
1419.608576  	0.036411 
1421.537392  	0.036626 
1423.466208  	0.036010 
1425.395024  	0.035232 
1427.323840  	0.034279 
1429.252656  	0.032826 
1431.181472  	0.031940 
1433.110288  	0.031756 
1435.039104  	0.031545 
1436.967920  	0.031623 
1438.896736  	0.032493 
1440.825552  	0.033003 
1442.754368  	0.033403 
1444.683184  	0.033347 
1446.612000  	0.033080 
1448.540816  	0.033276 
1450.469632  	0.033807 
1452.398448  	0.033880 
1454.327264  	0.033616 
1456.256080  	0.032441 
1458.184896  	0.032552 
1460.113712  	0.033723 
1462.042528  	0.034390 
1463.971344  	0.034228 
1465.900160  	0.035271 
1467.828976  	0.036799 
1469.757792  	0.037999 
1471.686608  	0.039105 
1473.615424  	0.042183 
1475.544240  	0.044770 
1477.473056  	0.047012 
1479.401872  	0.048200 
1481.330688  	0.048721 
1483.259504  	0.049066 
1485.188320  	0.048726 
1487.117136  	0.047399 
1489.045952  	0.045796 
1490.974768  	0.044338 
1492.903584  	0.043169 
1494.832400  	0.040829 
1496.761216  	0.037922 
1498.690032  	0.035712 
1500.618848  	0.034228 
1502.547664  	0.032706 
1504.476480  	0.030497 
1506.405296  	0.027181 
1508.334112  	0.026708 
1510.262928  	0.027028 
1512.191744  	0.026808 
1514.120560  	0.026183 
1516.049376  	0.025415 
1517.978192  	0.025668 
1519.907008  	0.025919 
1521.835824  	0.026833 
1523.764640  	0.029144 
1525.693456  	0.030737 
1527.622272  	0.032235 
1529.551088  	0.033291 
1531.479904  	0.033264 
1533.408720  	0.032353 
1535.337536  	0.032108 
1537.266352  	0.030523 
1539.195168  	0.027133 
1541.123984  	0.025249 
1543.052800  	0.025469 
1544.981616  	0.025423 
1546.910432  	0.025522 
1548.839248  	0.024763 
1550.768064  	0.024633 
1552.696880  	0.024755 
1554.625696  	0.024876 
1556.554512  	0.024562 
1558.483328  	0.023742 
1560.412144  	0.027360 
1562.340960  	0.030081 
1564.269776  	0.031564 
1566.198592  	0.033850 
1568.127408  	0.035417 
1570.056224  	0.038490 
1571.985040  	0.041668 
1573.913856  	0.042930 
1575.842672  	0.043375 
1577.771488  	0.045218 
1579.700304  	0.045840 
1581.629120  	0.045916 
1583.557936  	0.046049 
1585.486752  	0.046885 
1587.415568  	0.048221 
1589.344384  	0.050465 
1591.273200  	0.053222 
1593.202016  	0.056529 
1595.130832  	0.059797 
1597.059648  	0.063203 
1598.988464  	0.065831 
1600.917280  	0.067918 
1602.846096  	0.069136 
1604.774912  	0.069865 
1606.703728  	0.069674 
1608.632544  	0.069420 
1610.561360  	0.068992 
1612.490176  	0.068762 
1614.418992  	0.068055 
1616.347808  	0.068070 
1618.276624  	0.070022 
1620.205440  	0.072149 
1622.134256  	0.073700 
1624.063072  	0.077624 
1625.991888  	0.081525 
1627.920704  	0.085779 
1629.849520  	0.090835 
1631.778336  	0.095146 
1633.707152  	0.097998 
1635.635968  	0.102391 
1637.564784  	0.108039 
1639.493600  	0.111685 
1641.422416  	0.114646 
1643.351232  	0.116616 
1645.280048  	0.116942 
1647.208864  	0.118153 
1649.137680  	0.119652 
1651.066496  	0.118775 
1652.995312  	0.116300 
1654.924128  	0.118527 
1656.852944  	0.118538 
1658.781760  	0.117726 
1660.710576  	0.116383 
1662.639392  	0.115114 
1664.568208  	0.114504 
1666.497024  	0.113465 
1668.425840  	0.111341 
1670.354656  	0.110319 
1672.283472  	0.110020 
1674.212288  	0.109185 
1676.141104  	0.109225 
1678.069920  	0.109730 
1679.998736  	0.109464 
1681.927552  	0.108874 
1683.856368  	0.107957 
1685.785184  	0.110487 
1687.714000  	0.110506 
1689.642816  	0.110032 
1691.571632  	0.109649 
1693.500448  	0.108267 
1695.429264  	0.105502 
1697.358080  	0.103696 
1699.286896  	0.101288 
1701.215712  	0.099114 
1703.144528  	0.097412 
1705.073344  	0.094088 
1707.002160  	0.090986 
1708.930976  	0.088143 
1710.859792  	0.084578 
1712.788608  	0.080378 
1714.717424  	0.075441 
1716.646240  	0.069992 
1718.575056  	0.064980 
1720.503872  	0.061155 
1722.432688  	0.057039 
1724.361504  	0.052253 
1726.290320  	0.048082 
1728.219136  	0.043669 
1730.147952  	0.039303 
1732.076768  	0.035412 
1734.005584  	0.031380 
1735.934400  	0.028554 
1737.863216  	0.026503 
1739.792032  	0.023431 
1741.720848  	0.021389 
1743.649664  	0.019348 
1745.578480  	0.017711 
1747.507296  	0.015780 
1749.436112  	0.014343 
1751.364928  	0.013529 
1753.293744  	0.013618 
1755.222560  	0.012770 
1757.151376  	0.011873 
1759.080192  	0.011334 
1761.009008  	0.010990 
1762.937824  	0.010757 
1764.866640  	0.010768 
1766.795456  	0.010004 
1768.724272  	0.009469 
1770.653088  	0.008436 
1772.581904  	0.008165 
1774.510720  	0.008727 
1776.439536  	0.008947 
1778.368352  	0.008726 
1780.297168  	0.008654 
1782.225984  	0.008542 
1784.154800  	0.008483 
1786.083616  	0.008607 
1788.012432  	0.008695 
1789.941248  	0.007826 
1791.870064  	0.007223 
1793.798880  	0.007545 
1795.727696  	0.008038 
1797.656512  	0.007752 
1799.585328  	0.007365 
1801.514144  	0.007182 
1803.442960  	0.007373 
1805.371776  	0.007307 
1807.300592  	0.007274 
1809.229408  	0.006911 
1811.158224  	0.006816 
1813.087040  	0.006872 
1815.015856  	0.006905 
1816.944672  	0.006716 
1818.873488  	0.006989 
1820.802304  	0.007070 
1822.731120  	0.006978 
1824.659936  	0.006534 
1826.588752  	0.006638 
1828.517568  	0.006192 
1830.446384  	0.006433 
1832.375200  	0.006935 
1834.304016  	0.006851 
1836.232832  	0.006606 
1838.161648  	0.006936 
1840.090464  	0.006904 
1842.019280  	0.006391 
1843.948096  	0.005785 
1845.876912  	0.006250 
1847.805728  	0.006558 
1849.734544  	0.006862 
1851.663360  	0.006679 
1853.592176  	0.006635 
1855.520992  	0.006531 
1857.449808  	0.006707 
1859.378624  	0.006627 
1861.307440  	0.006556 
1863.236256  	0.006480 
1865.165072  	0.006512 
1867.093888  	0.005985 
1869.022704  	0.005986 
1870.951520  	0.006254 
1872.880336  	0.006683 
1874.809152  	0.006627 
1876.737968  	0.006731 
1878.666784  	0.006537 
1880.595600  	0.006536 
1882.524416  	0.006458 
1884.453232  	0.006336 
1886.382048  	0.006013 
1888.310864  	0.006001 
1890.239680  	0.006247 
1892.168496  	0.006706 
1894.097312  	0.006236 
1896.026128  	0.006206 
1897.954944  	0.006124 
1899.883760  	0.006163 
1901.812576  	0.006137 
1903.741392  	0.006385 
1905.670208  	0.006169 
1907.599024  	0.005995 
1909.527840  	0.005922 
1911.456656  	0.006264 
1913.385472  	0.006421 
1915.314288  	0.006533 
1917.243104  	0.006236 
1919.171920  	0.006240 
1921.100736  	0.006236 
1923.029552  	0.006382 
1924.958368  	0.005982 
1926.887184  	0.006255 
1928.816000  	0.005877 
1930.744816  	0.005529 
1932.673632  	0.005629 
1934.602448  	0.006240 
1936.531264  	0.006402 
1938.460080  	0.006508 
1940.388896  	0.006237 
1942.317712  	0.005833 
1944.246528  	0.005771 
1946.175344  	0.006335 
1948.104160  	0.005850 
1950.032976  	0.005871 
1951.961792  	0.006232 
1953.890608  	0.006549 
1955.819424  	0.005852 
1957.748240  	0.005759 
1959.677056  	0.005650 
1961.605872  	0.005582 
1963.534688  	0.005913 
1965.463504  	0.007094 
1967.392320  	0.006226 
1969.321136  	0.005560 
1971.249952  	0.005649 
1973.178768  	0.006732 
1975.107584  	0.005914 
1977.036400  	0.004858 
1978.965216  	0.006823 
1980.894032  	0.008413 
1982.822848  	0.006372 
1984.751664  	0.006513 
1986.680480  	0.007806 
1988.609296  	0.008030 
1990.538112  	0.007391 
1992.466928  	0.007739 
1994.395744  	0.007728 
1996.324560  	0.008223 
1998.253376  	0.007473 
2000.182192  	0.006266 
2002.111008  	0.005864 
2004.039824  	0.006180 
2005.968640  	0.006065 
2007.897456  	0.006313 
2009.826272  	0.005443 
2011.755088  	0.004388 
2013.683904  	0.004629 
2015.612720  	0.006200 
2017.541536  	0.006315 
2019.470352  	0.006171 
2021.399168  	0.005729 
2023.327984  	0.005650 
2025.256800  	0.005162 
2027.185616  	0.005457 
2029.114432  	0.006100 
2031.043248  	0.007305 
2032.972064  	0.007029 
2034.900880  	0.007556 
2036.829696  	0.006767 
2038.758512  	0.006229 
2040.687328  	0.005814 
2042.616144  	0.005463 
2044.544960  	0.005682 
2046.473776  	0.006254 
2048.402592  	0.006540 
2050.331408  	0.008023 
2052.260224  	0.007433 
2054.189040  	0.006813 
2056.117856  	0.006041 
2058.046672  	0.006026 
2059.975488  	0.006452 
2061.904304  	0.006545 
2063.833120  	0.007160 
2065.761936  	0.007334 
2067.690752  	0.006756 
2069.619568  	0.006513 
2071.548384  	0.005881 
2073.477200  	0.006158 
2075.406016  	0.006853 
2077.334832  	0.007025 
2079.263648  	0.006664 
2081.192464  	0.006526 
2083.121280  	0.006827 
2085.050096  	0.006901 
2086.978912  	0.006603 
2088.907728  	0.006621 
2090.836544  	0.006237 
2092.765360  	0.006058 
2094.694176  	0.005989 
2096.622992  	0.006082 
2098.551808  	0.006195 
2100.480624  	0.006262 
2102.409440  	0.006048 
2104.338256  	0.006519 
2106.267072  	0.006804 
2108.195888  	0.006526 
2110.124704  	0.006814 
2112.053520  	0.007311 
2113.982336  	0.006877 
2115.911152  	0.006662 
2117.839968  	0.006724 
2119.768784  	0.006455 
2121.697600  	0.006022 
2123.626416  	0.005560 
2125.555232  	0.005425 
2127.484048  	0.005688 
2129.412864  	0.005265 
2131.341680  	0.004181 
2133.270496  	0.004675 
2135.199312  	0.005556 
2137.128128  	0.005780 
2139.056944  	0.005714 
2140.985760  	0.004914 
2142.914576  	0.005704 
2144.843392  	0.006016 
2146.772208  	0.005758 
2148.701024  	0.005484 
2150.629840  	0.006162 
2152.558656  	0.004765 
2154.487472  	0.003082 
2156.416288  	0.002359 
2158.345104  	0.004719 
2160.273920  	0.007734 
2162.202736  	0.009044 
2164.131552  	0.008846 
2166.060368  	0.009592 
2167.989184  	0.007720 
2169.918000  	0.006389 
2171.846816  	0.006276 
2173.775632  	0.006649 
2175.704448  	0.006887 
2177.633264  	0.007380 
2179.562080  	0.007473 
2181.490896  	0.006969 
2183.419712  	0.006059 
2185.348528  	0.006615 
2187.277344  	0.006241 
2189.206160  	0.006142 
2191.134976  	0.007671 
2193.063792  	0.009071 
2194.992608  	0.009149 
2196.921424  	0.007606 
2198.850240  	0.007397 
2200.779056  	0.007928 
2202.707872  	0.007814 
2204.636688  	0.007596 
2206.565504  	0.007610 
2208.494320  	0.007946 
2210.423136  	0.006220 
2212.351952  	0.006492 
2214.280768  	0.007418 
2216.209584  	0.007030 
2218.138400  	0.006912 
2220.067216  	0.006970 
2221.996032  	0.007048 
2223.924848  	0.007044 
2225.853664  	0.007336 
2227.782480  	0.008041 
2229.711296  	0.007929 
2231.640112  	0.007320 
2233.568928  	0.007498 
2235.497744  	0.007931 
2237.426560  	0.007080 
2239.355376  	0.006758 
2241.284192  	0.006762 
2243.213008  	0.006769 
2245.141824  	0.006744 
2247.070640  	0.006646 
2248.999456  	0.006664 
2250.928272  	0.006901 
2252.857088  	0.006896 
2254.785904  	0.006662 
2256.714720  	0.007138 
2258.643536  	0.007874 
2260.572352  	0.007520 
2262.501168  	0.007097 
2264.429984  	0.007429 
2266.358800  	0.007988 
2268.287616  	0.008013 
2270.216432  	0.007917 
2272.145248  	0.007535 
2274.074064  	0.007329 
2276.002880  	0.007264 
2277.931696  	0.007644 
2279.860512  	0.008294 
2281.789328  	0.008580 
2283.718144  	0.008484 
2285.646960  	0.008768 
2287.575776  	0.008870 
2289.504592  	0.008337 
2291.433408  	0.008039 
2293.362224  	0.008132 
2295.291040  	0.007964 
2297.219856  	0.008051 
2299.148672  	0.007913 
2301.077488  	0.007735 
2303.006304  	0.007733 
2304.935120  	0.007678 
2306.863936  	0.007564 
2308.792752  	0.007533 
2310.721568  	0.007641 
2312.650384  	0.007750 
2314.579200  	0.007670 
2316.508016  	0.007508 
2318.436832  	0.007162 
2320.365648  	0.007073 
2322.294464  	0.007179 
2324.223280  	0.007153 
2326.152096  	0.006190 
2328.080912  	0.005329 
2330.009728  	0.004935 
2331.938544  	0.004722 
2333.867360  	0.004347 
2335.796176  	0.003928 
2337.724992  	0.003856 
2339.653808  	0.004003 
2341.582624  	0.003868 
2343.511440  	0.004421 
2345.440256  	0.004925 
2347.369072  	0.005669 
2349.297888  	0.005703 
2351.226704  	0.004745 
2353.155520  	0.004063 
2355.084336  	0.003528 
2357.013152  	0.002679 
2358.941968  	0.002166 
2360.870784  	0.002200 
2362.799600  	0.002667 
2364.728416  	0.002924 
2366.657232  	0.003308 
2368.586048  	0.003152 
2370.514864  	0.003881 
2372.443680  	0.004735 
2374.372496  	0.005397 
2376.301312  	0.006088 
2378.230128  	0.006740 
2380.158944  	0.006936 
2382.087760  	0.007119 
2384.016576  	0.007351 
2385.945392  	0.007632 
2387.874208  	0.007517 
2389.803024  	0.007372 
2391.731840  	0.007320 
2393.660656  	0.007328 
2395.589472  	0.007405 
2397.518288  	0.007629 
2399.447104  	0.007643 
2401.375920  	0.007333 
2403.304736  	0.007299 
2405.233552  	0.007588 
2407.162368  	0.007792 
2409.091184  	0.007684 
2411.020000  	0.007619 
2412.948816  	0.007893 
2414.877632  	0.007942 
2416.806448  	0.008073 
2418.735264  	0.008200 
2420.664080  	0.007876 
2422.592896  	0.007635 
2424.521712  	0.007839 
2426.450528  	0.008104 
2428.379344  	0.007934 
2430.308160  	0.007868 
2432.236976  	0.008043 
2434.165792  	0.008215 
2436.094608  	0.008568 
2438.023424  	0.008718 
2439.952240  	0.008846 
2441.881056  	0.008857 
2443.809872  	0.008553 
2445.738688  	0.008534 
2447.667504  	0.008682 
2449.596320  	0.008637 
2451.525136  	0.008714 
2453.453952  	0.008773 
2455.382768  	0.008930 
2457.311584  	0.009100 
2459.240400  	0.009034 
2461.169216  	0.008812 
2463.098032  	0.008849 
2465.026848  	0.009000 
2466.955664  	0.008938 
2468.884480  	0.008711 
2470.813296  	0.008725 
2472.742112  	0.008719 
2474.670928  	0.008610 
2476.599744  	0.008664 
2478.528560  	0.008883 
2480.457376  	0.009263 
2482.386192  	0.009241 
2484.315008  	0.008936 
2486.243824  	0.008960 
2488.172640  	0.008870 
2490.101456  	0.008755 
2492.030272  	0.008941 
2493.959088  	0.008941 
2495.887904  	0.008881 
2497.816720  	0.008975 
2499.745536  	0.009020 
2501.674352  	0.009196 
2503.603168  	0.009275 
2505.531984  	0.009224 
2507.460800  	0.009212 
2509.389616  	0.009165 
2511.318432  	0.008894 
2513.247248  	0.009100 
2515.176064  	0.009461 
2517.104880  	0.009815 
2519.033696  	0.009784 
2520.962512  	0.009674 
2522.891328  	0.009795 
2524.820144  	0.009764 
2526.748960  	0.009829 
2528.677776  	0.009902 
2530.606592  	0.009818 
2532.535408  	0.009877 
2534.464224  	0.010194 
2536.393040  	0.010210 
2538.321856  	0.009838 
2540.250672  	0.009817 
2542.179488  	0.010020 
2544.108304  	0.010324 
2546.037120  	0.010169 
2547.965936  	0.010317 
2549.894752  	0.010481 
2551.823568  	0.010554 
2553.752384  	0.010763 
2555.681200  	0.010865 
2557.610016  	0.010749 
2559.538832  	0.010622 
2561.467648  	0.010623 
2563.396464  	0.010921 
2565.325280  	0.011132 
2567.254096  	0.011249 
2569.182912  	0.011217 
2571.111728  	0.010978 
2573.040544  	0.010741 
2574.969360  	0.010811 
2576.898176  	0.011050 
2578.826992  	0.011364 
2580.755808  	0.011381 
2582.684624  	0.011401 
2584.613440  	0.011350 
2586.542256  	0.011442 
2588.471072  	0.011504 
2590.399888  	0.011556 
2592.328704  	0.011681 
2594.257520  	0.011623 
2596.186336  	0.011863 
2598.115152  	0.012185 
2600.043968  	0.012096 
2601.972784  	0.012004 
2603.901600  	0.012181 
2605.830416  	0.012237 
2607.759232  	0.011983 
2609.688048  	0.012119 
2611.616864  	0.012356 
2613.545680  	0.012394 
2615.474496  	0.012395 
2617.403312  	0.012433 
2619.332128  	0.012589 
2621.260944  	0.012722 
2623.189760  	0.012689 
2625.118576  	0.012717 
2627.047392  	0.012863 
2628.976208  	0.013003 
2630.905024  	0.013085 
2632.833840  	0.013309 
2634.762656  	0.013433 
2636.691472  	0.013299 
2638.620288  	0.013243 
2640.549104  	0.013322 
2642.477920  	0.013345 
2644.406736  	0.013448 
2646.335552  	0.013715 
2648.264368  	0.013951 
2650.193184  	0.013971 
2652.122000  	0.013988 
2654.050816  	0.014102 
2655.979632  	0.014090 
2657.908448  	0.014113 
2659.837264  	0.014206 
2661.766080  	0.014143 
2663.694896  	0.014072 
2665.623712  	0.014004 
2667.552528  	0.013953 
2669.481344  	0.014071 
2671.410160  	0.014316 
2673.338976  	0.014383 
2675.267792  	0.014418 
2677.196608  	0.014451 
2679.125424  	0.014546 
2681.054240  	0.014575 
2682.983056  	0.014690 
2684.911872  	0.014823 
2686.840688  	0.014815 
2688.769504  	0.014869 
2690.698320  	0.014999 
2692.627136  	0.015144 
2694.555952  	0.015231 
2696.484768  	0.015158 
2698.413584  	0.015139 
2700.342400  	0.015144 
2702.271216  	0.015311 
2704.200032  	0.015505 
2706.128848  	0.015635 
2708.057664  	0.015725 
2709.986480  	0.015671 
2711.915296  	0.015693 
2713.844112  	0.015820 
2715.772928  	0.015968 
2717.701744  	0.016104 
2719.630560  	0.016094 
2721.559376  	0.016142 
2723.488192  	0.016255 
2725.417008  	0.016437 
2727.345824  	0.016531 
2729.274640  	0.016516 
2731.203456  	0.016553 
2733.132272  	0.016782 
2735.061088  	0.016956 
2736.989904  	0.016995 
2738.918720  	0.016976 
2740.847536  	0.016926 
2742.776352  	0.017025 
2744.705168  	0.017159 
2746.633984  	0.017197 
2748.562800  	0.017322 
2750.491616  	0.017381 
2752.420432  	0.017422 
2754.349248  	0.017538 
2756.278064  	0.017640 
2758.206880  	0.017628 
2760.135696  	0.017698 
2762.064512  	0.017703 
2763.993328  	0.017662 
2765.922144  	0.017713 
2767.850960  	0.017810 
2769.779776  	0.017837 
2771.708592  	0.017862 
2773.637408  	0.017784 
2775.566224  	0.017805 
2777.495040  	0.017827 
2779.423856  	0.017891 
2781.352672  	0.017984 
2783.281488  	0.018153 
2785.210304  	0.018151 
2787.139120  	0.018234 
2789.067936  	0.018366 
2790.996752  	0.018453 
2792.925568  	0.018606 
2794.854384  	0.018696 
2796.783200  	0.018732 
2798.712016  	0.018640 
2800.640832  	0.018616 
2802.569648  	0.018772 
2804.498464  	0.018899 
2806.427280  	0.018965 
2808.356096  	0.019016 
2810.284912  	0.019176 
2812.213728  	0.019214 
2814.142544  	0.019246 
2816.071360  	0.019449 
2818.000176  	0.019416 
2819.928992  	0.019299 
2821.857808  	0.019441 
2823.786624  	0.019580 
2825.715440  	0.019659 
2827.644256  	0.019676 
2829.573072  	0.019815 
2831.501888  	0.019953 
2833.430704  	0.019970 
2835.359520  	0.020032 
2837.288336  	0.020067 
2839.217152  	0.020000 
2841.145968  	0.020009 
2843.074784  	0.020064 
2845.003600  	0.020143 
2846.932416  	0.020201 
2848.861232  	0.020255 
2850.790048  	0.020371 
2852.718864  	0.020457 
2854.647680  	0.020524 
2856.576496  	0.020773 
2858.505312  	0.020883 
2860.434128  	0.020940 
2862.362944  	0.021106 
2864.291760  	0.021246 
2866.220576  	0.021419 
2868.149392  	0.021830 
2870.078208  	0.022257 
2872.007024  	0.022454 
2873.935840  	0.022727 
2875.864656  	0.023162 
2877.793472  	0.023602 
2879.722288  	0.024036 
2881.651104  	0.024435 
2883.579920  	0.024731 
2885.508736  	0.024892 
2887.437552  	0.024952 
2889.366368  	0.025152 
2891.295184  	0.025399 
2893.224000  	0.025568 
2895.152816  	0.025717 
2897.081632  	0.025738 
2899.010448  	0.025994 
2900.939264  	0.026217 
2902.868080  	0.026267 
2904.796896  	0.026461 
2906.725712  	0.026569 
2908.654528  	0.026659 
2910.583344  	0.026870 
2912.512160  	0.027299 
2914.440976  	0.027639 
2916.369792  	0.027867 
2918.298608  	0.028139 
2920.227424  	0.028554 
2922.156240  	0.028961 
2924.085056  	0.029191 
2926.013872  	0.029445 
2927.942688  	0.029822 
2929.871504  	0.030141 
2931.800320  	0.030412 
2933.729136  	0.030572 
2935.657952  	0.030678 
2937.586768  	0.030811 
2939.515584  	0.031020 
2941.444400  	0.031322 
2943.373216  	0.031595 
2945.302032  	0.031851 
2947.230848  	0.032081 
2949.159664  	0.032229 
2951.088480  	0.032199 
2953.017296  	0.032344 
2954.946112  	0.032421 
2956.874928  	0.032236 
2958.803744  	0.032018 
2960.732560  	0.031922 
2962.661376  	0.032029 
2964.590192  	0.032069 
2966.519008  	0.032006 
2968.447824  	0.031961 
2970.376640  	0.031905 
2972.305456  	0.031646 
2974.234272  	0.031275 
2976.163088  	0.030990 
2978.091904  	0.030823 
2980.020720  	0.030730 
2981.949536  	0.030650 
2983.878352  	0.030483 
2985.807168  	0.030501 
2987.735984  	0.030717 
2989.664800  	0.030627 
2991.593616  	0.030148 
2993.522432  	0.029729 
2995.451248  	0.029669 
2997.380064  	0.029808 
2999.308880  	0.029977 
3001.237696  	0.029853 
3003.166512  	0.029537 
3005.095328  	0.029497 
3007.024144  	0.029613 
3008.952960  	0.029510 
3010.881776  	0.029471 
3012.810592  	0.029547 
3014.739408  	0.029475 
3016.668224  	0.029617 
3018.597040  	0.029591 
3020.525856  	0.029344 
3022.454672  	0.029423 
3024.383488  	0.029573 
3026.312304  	0.029643 
3028.241120  	0.029756 
3030.169936  	0.029637 
3032.098752  	0.029858 
3034.027568  	0.029939 
3035.956384  	0.029683 
3037.885200  	0.029775 
3039.814016  	0.030136 
3041.742832  	0.030451 
3043.671648  	0.030560 
3045.600464  	0.030554 
3047.529280  	0.030536 
3049.458096  	0.030685 
3051.386912  	0.030779 
3053.315728  	0.031033 
3055.244544  	0.031345 
3057.173360  	0.031586 
3059.102176  	0.031794 
3061.030992  	0.031971 
3062.959808  	0.032223 
3064.888624  	0.032561 
3066.817440  	0.032907 
3068.746256  	0.033125 
3070.675072  	0.033219 
3072.603888  	0.033557 
3074.532704  	0.034005 
3076.461520  	0.034297 
3078.390336  	0.034552 
3080.319152  	0.034775 
3082.247968  	0.035135 
3084.176784  	0.035481 
3086.105600  	0.035614 
3088.034416  	0.035851 
3089.963232  	0.036316 
3091.892048  	0.036741 
3093.820864  	0.036925 
3095.749680  	0.037179 
3097.678496  	0.037225 
3099.607312  	0.037451 
3101.536128  	0.037673 
3103.464944  	0.038017 
3105.393760  	0.038344 
3107.322576  	0.038645 
3109.251392  	0.039041 
3111.180208  	0.039335 
3113.109024  	0.039401 
3115.037840  	0.039414 
3116.966656  	0.039677 
3118.895472  	0.039906 
3120.824288  	0.040070 
3122.753104  	0.040327 
3124.681920  	0.040654 
3126.610736  	0.040839 
3128.539552  	0.041038 
3130.468368  	0.041204 
3132.397184  	0.041324 
3134.326000  	0.041549 
3136.254816  	0.041700 
3138.183632  	0.041824 
3140.112448  	0.041867 
3142.041264  	0.041996 
3143.970080  	0.042308 
3145.898896  	0.042503 
3147.827712  	0.042619 
3149.756528  	0.042822 
3151.685344  	0.043207 
3153.614160  	0.043552 
3155.542976  	0.043643 
3157.471792  	0.043781 
3159.400608  	0.044198 
3161.329424  	0.044619 
3163.258240  	0.044985 
3165.187056  	0.045158 
3167.115872  	0.045204 
3169.044688  	0.045242 
3170.973504  	0.045298 
3172.902320  	0.045480 
3174.831136  	0.045746 
3176.759952  	0.046056 
3178.688768  	0.046297 
3180.617584  	0.046213 
3182.546400  	0.046065 
3184.475216  	0.046315 
3186.404032  	0.046544 
3188.332848  	0.046478 
3190.261664  	0.046688 
3192.190480  	0.046845 
3194.119296  	0.046639 
3196.048112  	0.046570 
3197.976928  	0.046791 
3199.905744  	0.046853 
3201.834560  	0.046862 
3203.763376  	0.046946 
3205.692192  	0.046878 
3207.621008  	0.046658 
3209.549824  	0.046411 
3211.478640  	0.046369 
3213.407456  	0.046381 
3215.336272  	0.046422 
3217.265088  	0.046262 
3219.193904  	0.046028 
3221.122720  	0.045861 
3223.051536  	0.045939 
3224.980352  	0.045864 
3226.909168  	0.045551 
3228.837984  	0.045234 
3230.766800  	0.045303 
3232.695616  	0.045323 
3234.624432  	0.045305 
3236.553248  	0.045390 
3238.482064  	0.045295 
3240.410880  	0.045142 
3242.339696  	0.045022 
3244.268512  	0.044998 
3246.197328  	0.045054 
3248.126144  	0.045066 
3250.054960  	0.045120 
3251.983776  	0.045074 
3253.912592  	0.044967 
3255.841408  	0.044958 
3257.770224  	0.045245 
3259.699040  	0.045462 
3261.627856  	0.045516 
3263.556672  	0.045610 
3265.485488  	0.045519 
3267.414304  	0.045647 
3269.343120  	0.045957 
3271.271936  	0.046177 
3273.200752  	0.046177 
3275.129568  	0.046128 
3277.058384  	0.046060 
3278.987200  	0.046397 
3280.916016  	0.046703 
3282.844832  	0.046735 
3284.773648  	0.046659 
3286.702464  	0.046637 
3288.631280  	0.046890 
3290.560096  	0.047121 
3292.488912  	0.047211 
3294.417728  	0.047235 
3296.346544  	0.047377 
3298.275360  	0.047616 
3300.204176  	0.047868 
3302.132992  	0.048011 
3304.061808  	0.048344 
3305.990624  	0.048574 
3307.919440  	0.048471 
3309.848256  	0.048585 
3311.777072  	0.048661 
3313.705888  	0.048783 
3315.634704  	0.049002 
3317.563520  	0.049265 
3319.492336  	0.049459 
3321.421152  	0.049560 
3323.349968  	0.049697 
3325.278784  	0.049903 
3327.207600  	0.049938 
3329.136416  	0.049968 
3331.065232  	0.049956 
3332.994048  	0.050085 
3334.922864  	0.050221 
3336.851680  	0.050213 
3338.780496  	0.050196 
3340.709312  	0.050153 
3342.638128  	0.050024 
3344.566944  	0.049942 
3346.495760  	0.049864 
3348.424576  	0.049866 
3350.353392  	0.049687 
3352.282208  	0.049425 
3354.211024  	0.049395 
3356.139840  	0.049381 
3358.068656  	0.049112 
3359.997472  	0.048965 
3361.926288  	0.048792 
3363.855104  	0.048470 
3365.783920  	0.048293 
3367.712736  	0.048231 
3369.641552  	0.048009 
3371.570368  	0.047762 
3373.499184  	0.047553 
3375.428000  	0.047371 
3377.356816  	0.047199 
3379.285632  	0.047018 
3381.214448  	0.046811 
3383.143264  	0.046466 
3385.072080  	0.046442 
3387.000896  	0.046243 
3388.929712  	0.045979 
3390.858528  	0.045722 
3392.787344  	0.045472 
3394.716160  	0.045346 
3396.644976  	0.045189 
3398.573792  	0.044867 
3400.502608  	0.044416 
3402.431424  	0.044176 
3404.360240  	0.044023 
3406.289056  	0.043828 
3408.217872  	0.043540 
3410.146688  	0.043351 
3412.075504  	0.043537 
3414.004320  	0.043519 
3415.933136  	0.043141 
3417.861952  	0.042732 
3419.790768  	0.042538 
3421.719584  	0.042213 
3423.648400  	0.041816 
3425.577216  	0.041812 
3427.506032  	0.041668 
3429.434848  	0.041201 
3431.363664  	0.040955 
3433.292480  	0.040834 
3435.221296  	0.040626 
3437.150112  	0.040296 
3439.078928  	0.040108 
3441.007744  	0.039845 
3442.936560  	0.039651 
3444.865376  	0.039369 
3446.794192  	0.038767 
3448.723008  	0.038598 
3450.651824  	0.038398 
3452.580640  	0.038046 
3454.509456  	0.037719 
3456.438272  	0.037354 
3458.367088  	0.037174 
3460.295904  	0.036943 
3462.224720  	0.036634 
3464.153536  	0.036280 
3466.082352  	0.036065 
3468.011168  	0.035888 
3469.939984  	0.035383 
3471.868800  	0.034871 
3473.797616  	0.034651 
3475.726432  	0.034308 
3477.655248  	0.033845 
3479.584064  	0.033534 
3481.512880  	0.033256 
3483.441696  	0.032835 
3485.370512  	0.032276 
3487.299328  	0.031921 
3489.228144  	0.031689 
3491.156960  	0.031183 
3493.085776  	0.030760 
3495.014592  	0.030545 
3496.943408  	0.030344 
3498.872224  	0.030021 
3500.801040  	0.029604 
3502.729856  	0.029106 
3504.658672  	0.028798 
3506.587488  	0.028444 
3508.516304  	0.028039 
3510.445120  	0.027792 
3512.373936  	0.027831 
3514.302752  	0.027709 
3516.231568  	0.027305 
3518.160384  	0.026798 
3520.089200  	0.026572 
3522.018016  	0.026268 
3523.946832  	0.025983 
3525.875648  	0.025773 
3527.804464  	0.025365 
3529.733280  	0.025191 
3531.662096  	0.025105 
3533.590912  	0.024753 
3535.519728  	0.024459 
3537.448544  	0.024398 
3539.377360  	0.024296 
3541.306176  	0.023824 
3543.234992  	0.023183 
3545.163808  	0.022794 
3547.092624  	0.022552 
3549.021440  	0.022336 
3550.950256  	0.022000 
3552.879072  	0.021983 
3554.807888  	0.022061 
3556.736704  	0.021786 
3558.665520  	0.021486 
3560.594336  	0.021345 
3562.523152  	0.020973 
3564.451968  	0.020127 
3566.380784  	0.018977 
3568.309600  	0.018965 
3570.238416  	0.019586 
3572.167232  	0.019451 
3574.096048  	0.019203 
3576.024864  	0.018888 
3577.953680  	0.018472 
3579.882496  	0.018197 
3581.811312  	0.018125 
3583.740128  	0.017763 
3585.668944  	0.016668 
3587.597760  	0.015992 
3589.526576  	0.016371 
3591.455392  	0.016148 
3593.384208  	0.015642 
3595.313024  	0.015278 
3597.241840  	0.015110 
3599.170656  	0.014727 
3601.099472  	0.014371 
3603.028288  	0.014323 
3604.957104  	0.013900 
3606.885920  	0.012927 
3608.814736  	0.012713 
3610.743552  	0.012477 
3612.672368  	0.011582 
3614.601184  	0.011194 
3616.530000  	0.010713 
3618.458816  	0.010272 
3620.387632  	0.010434 
3622.316448  	0.010645 
3624.245264  	0.010655 
3626.174080  	0.009570 
3628.102896  	0.007944 
3630.031712  	0.008417 
3631.960528  	0.009145 
3633.889344  	0.008752 
3635.818160  	0.008413 
3637.746976  	0.008223 
3639.675792  	0.008291 
3641.604608  	0.008216 
3643.533424  	0.007766 
3645.462240  	0.006737 
3647.391056  	0.005315 
3649.319872  	0.004710 
3651.248688  	0.005720 
3653.177504  	0.006280 
3655.106320  	0.005749 
3657.035136  	0.005761 
3658.963952  	0.005968 
3660.892768  	0.005673 
3662.821584  	0.005478 
3664.750400  	0.005305 
3666.679216  	0.004691 
3668.608032  	0.003457 
3670.536848  	0.003236 
3672.465664  	0.003951 
3674.394480  	0.002868 
3676.323296  	0.003057 
3678.252112  	0.003899 
3680.180928  	0.003865 
3682.109744  	0.003977 
3684.038560  	0.004012 
3685.967376  	0.003547 
3687.896192  	0.002347 
3689.825008  	0.002000 
3691.753824  	0.002656 
3693.682640  	0.003183 
3695.611456  	0.003143 
3697.540272  	0.003221 
3699.469088  	0.002927 
3701.397904  	0.002714 
3703.326720  	0.002996 
3705.255536  	0.002932 
3707.184352  	0.002367 
3709.113168  	0.001610 
3711.041984  	0.001272 
3712.970800  	0.001972 
3714.899616  	0.002801 
3716.828432  	0.002774 
3718.757248  	0.002265 
3720.686064  	0.002014 
3722.614880  	0.001946 
3724.543696  	0.001927 
3726.472512  	0.002050 
3728.401328  	0.002302 
3730.330144  	0.001568 
3732.258960  	0.000705 
3734.187776  	0.000541 
3736.116592  	0.001114 
3738.045408  	0.001630 
3739.974224  	0.001514 
3741.903040  	0.001134 
3743.831856  	0.000988 
3745.760672  	0.001726 
3747.689488  	0.001061 
3749.618304  	-0.000019 
3751.547120  	0.000296 
3753.475936  	0.001861 
3755.404752  	0.002250 
3757.333568  	0.001733 
3759.262384  	0.001746 
3761.191200  	0.002620 
3763.120016  	0.002746 
3765.048832  	0.002216 
3766.977648  	0.002295 
3768.906464  	0.002110 
3770.835280  	0.002441 
3772.764096  	0.002987 
3774.692912  	0.003011 
3776.621728  	0.002628 
3778.550544  	0.002236 
3780.479360  	0.002410 
3782.408176  	0.002500 
3784.336992  	0.002272 
3786.265808  	0.002588 
3788.194624  	0.002916 
3790.123440  	0.002799 
3792.052256  	0.002628 
3793.981072  	0.002354 
3795.909888  	0.001915 
3797.838704  	0.002047 
3799.767520  	0.001683 
3801.696336  	0.001310 
3803.625152  	0.001820 
3805.553968  	0.001635 
3807.482784  	0.001895 
3809.411600  	0.002744 
3811.340416  	0.002982 
3813.269232  	0.002642 
3815.198048  	0.001693 
3817.126864  	0.001817 
3819.055680  	0.001485 
3820.984496  	0.001060 
3822.913312  	0.002072 
3824.842128  	0.002273 
3826.770944  	0.002234 
3828.699760  	0.002543 
3830.628576  	0.002152 
3832.557392  	0.002028 
3834.486208  	0.001711 
3836.415024  	0.000928 
3838.343840  	0.000824 
3840.272656  	0.001212 
3842.201472  	0.001625 
3844.130288  	0.002024 
3846.059104  	0.002680 
3847.987920  	0.002728 
3849.916736  	0.001990 
3851.845552  	0.000738 
3853.774368  	0.000835 
3855.703184  	0.001939 
3857.632000  	0.002155 
3859.560816  	0.002149 
3861.489632  	0.001656 
3863.418448  	0.001302 
3865.347264  	0.001741 
3867.276080  	0.002012 
3869.204896  	0.001419 
3871.133712  	0.001910 
3873.062528  	0.001986 
3874.991344  	0.002240 
3876.920160  	0.002612 
3878.848976  	0.002104 
3880.777792  	0.001956 
3882.706608  	0.002319 
3884.635424  	0.002063 
3886.564240  	0.002362 
3888.493056  	0.002626 
3890.421872  	0.002175 
3892.350688  	0.002201 
3894.279504  	0.002563 
3896.208320  	0.002651 
3898.137136  	0.002249 
3900.065952  	0.001734 
3901.994768  	0.001597 
3903.923584  	0.001844 
3905.852400  	0.002479 
3907.781216  	0.002725 
3909.710032  	0.002767 
3911.638848  	0.002865 
3913.567664  	0.002777 
3915.496480  	0.002609 
3917.425296  	0.002828 
3919.354112  	0.002997 
3921.282928  	0.003020 
3923.211744  	0.002753 
3925.140560  	0.002515 
3927.069376  	0.002565 
3928.998192  	0.002608 
3930.927008  	0.002655 
3932.855824  	0.002612 
3934.784640  	0.002686 
3936.713456  	0.003114 
3938.642272  	0.003213 
3940.571088  	0.002785 
3942.499904  	0.002676 
3944.428720  	0.003006 
3946.357536  	0.002904 
3948.286352  	0.002644 
3950.215168  	0.002680 
3952.143984  	0.002889 
3954.072800  	0.002947 
3956.001616  	0.002831 
3957.930432  	0.002890 
3959.859248  	0.003140 
3961.788064  	0.002985 
3963.716880  	0.002945 
3965.645696  	0.003013 
3967.574512  	0.003136 
3969.503328  	0.003185 
3971.432144  	0.003061 
3973.360960  	0.003027 
3975.289776  	0.003037 
3977.218592  	0.003063 
3979.147408  	0.003223 
3981.076224  	0.003128 
3983.005040  	0.002905 
3984.933856  	0.002913 
3986.862672  	0.002974 
3988.791488  	0.002891 
3990.720304  	0.002981 
3992.649120  	0.003207 
3994.577936  	0.003070 
3996.506752  	0.002950 
3998.435568  	0.003133 
4000.364384  	0.003269 