##TITLE=No Description
##DATA TYPE=INFRARED SPECTRUM
##XUNITS=1/CM
##YUNITS=Abs
399.264912  	0.636002 
401.193728  	0.602692 
403.122544  	0.594888 
405.051360  	0.583761 
406.980176  	0.572411 
408.908992  	0.557768 
410.837808  	0.559806 
412.766624  	0.567726 
414.695440  	0.577428 
416.624256  	0.577971 
418.553072  	0.575324 
420.481888  	0.556264 
422.410704  	0.553349 
424.339520  	0.551372 
426.268336  	0.550265 
428.197152  	0.537806 
430.125968  	0.535346 
432.054784  	0.530264 
433.983600  	0.531726 
435.912416  	0.524918 
437.841232  	0.523713 
439.770048  	0.520060 
441.698864  	0.518718 
443.627680  	0.518037 
445.556496  	0.518806 
447.485312  	0.516727 
449.414128  	0.517265 
451.342944  	0.512135 
453.271760  	0.511168 
455.200576  	0.510448 
457.129392  	0.513829 
459.058208  	0.508959 
460.987024  	0.507077 
462.915840  	0.507147 
464.844656  	0.509033 
466.773472  	0.507821 
468.702288  	0.512002 
470.631104  	0.510174 
472.559920  	0.506091 
474.488736  	0.499638 
476.417552  	0.502599 
478.346368  	0.501699 
480.275184  	0.501148 
482.204000  	0.497795 
484.132816  	0.499299 
486.061632  	0.497214 
487.990448  	0.498669 
489.919264  	0.499965 
491.848080  	0.500330 
493.776896  	0.494615 
495.705712  	0.492067 
497.634528  	0.491153 
499.563344  	0.492191 
501.492160  	0.491562 
503.420976  	0.490284 
505.349792  	0.485529 
507.278608  	0.485584 
509.207424  	0.484352 
511.136240  	0.484502 
513.065056  	0.487230 
514.993872  	0.491500 
516.922688  	0.489291 
518.851504  	0.489704 
520.780320  	0.490125 
522.709136  	0.490921 
524.637952  	0.487579 
526.566768  	0.485588 
528.495584  	0.483613 
530.424400  	0.481407 
532.353216  	0.477257 
534.282032  	0.473988 
536.210848  	0.469106 
538.139664  	0.466013 
540.068480  	0.461116 
541.997296  	0.457398 
543.926112  	0.454509 
545.854928  	0.451921 
547.783744  	0.446870 
549.712560  	0.443155 
551.641376  	0.440722 
553.570192  	0.437996 
555.499008  	0.433217 
557.427824  	0.430798 
559.356640  	0.427690 
561.285456  	0.424448 
563.214272  	0.420844 
565.143088  	0.418205 
567.071904  	0.414272 
569.000720  	0.410982 
570.929536  	0.407554 
572.858352  	0.405165 
574.787168  	0.401823 
576.715984  	0.398565 
578.644800  	0.394480 
580.573616  	0.391176 
582.502432  	0.387277 
584.431248  	0.384686 
586.360064  	0.381304 
588.288880  	0.378931 
590.217696  	0.377215 
592.146512  	0.376311 
594.075328  	0.374090 
596.004144  	0.371219 
597.932960  	0.368809 
599.861776  	0.368283 
601.790592  	0.366863 
603.719408  	0.365556 
605.648224  	0.363905 
607.577040  	0.363226 
609.505856  	0.362185 
611.434672  	0.361356 
613.363488  	0.359027 
615.292304  	0.356879 
617.221120  	0.354726 
619.149936  	0.354088 
621.078752  	0.352530 
623.007568  	0.350136 
624.936384  	0.347898 
626.865200  	0.346675 
628.794016  	0.345497 
630.722832  	0.344444 
632.651648  	0.342767 
634.580464  	0.342030 
636.509280  	0.341973 
638.438096  	0.341706 
640.366912  	0.340816 
642.295728  	0.339791 
644.224544  	0.337846 
646.153360  	0.334489 
648.082176  	0.330607 
650.010992  	0.327651 
651.939808  	0.324153 
653.868624  	0.320463 
655.797440  	0.316557 
657.726256  	0.313401 
659.655072  	0.309897 
661.583888  	0.306701 
663.512704  	0.303650 
665.441520  	0.300812 
667.370336  	0.295236 
669.299152  	0.289824 
671.227968  	0.289848 
673.156784  	0.287837 
675.085600  	0.285285 
677.014416  	0.283733 
678.943232  	0.282132 
680.872048  	0.280176 
682.800864  	0.278649 
684.729680  	0.277022 
686.658496  	0.275018 
688.587312  	0.273710 
690.516128  	0.271843 
692.444944  	0.270580 
694.373760  	0.269324 
696.302576  	0.267610 
698.231392  	0.264918 
700.160208  	0.261966 
702.089024  	0.259793 
704.017840  	0.258575 
705.946656  	0.256213 
707.875472  	0.253550 
709.804288  	0.251186 
711.733104  	0.249582 
713.661920  	0.248201 
715.590736  	0.247432 
717.519552  	0.246944 
719.448368  	0.247297 
721.377184  	0.248097 
723.306000  	0.248535 
725.234816  	0.248090 
727.163632  	0.246507 
729.092448  	0.244279 
731.021264  	0.241893 
732.950080  	0.239090 
734.878896  	0.236554 
736.807712  	0.234401 
738.736528  	0.232557 
740.665344  	0.230781 
742.594160  	0.229095 
744.522976  	0.227408 
746.451792  	0.226216 
748.380608  	0.225366 
750.309424  	0.224557 
752.238240  	0.223808 
754.167056  	0.223253 
756.095872  	0.222165 
758.024688  	0.221240 
759.953504  	0.220787 
761.882320  	0.220809 
763.811136  	0.220863 
765.739952  	0.220099 
767.668768  	0.218647 
769.597584  	0.217188 
771.526400  	0.216577 
773.455216  	0.218183 
775.384032  	0.220589 
777.312848  	0.223644 
779.241664  	0.226970 
781.170480  	0.227581 
783.099296  	0.224477 
785.028112  	0.219738 
786.956928  	0.214281 
788.885744  	0.209679 
790.814560  	0.206142 
792.743376  	0.203643 
794.672192  	0.201829 
796.601008  	0.200979 
798.529824  	0.199361 
800.458640  	0.196077 
802.387456  	0.192883 
804.316272  	0.191417 
806.245088  	0.190669 
808.173904  	0.190081 
810.102720  	0.189878 
812.031536  	0.189632 
813.960352  	0.189302 
815.889168  	0.189113 
817.817984  	0.188805 
819.746800  	0.188450 
821.675616  	0.188019 
823.604432  	0.187706 
825.533248  	0.186750 
827.462064  	0.185419 
829.390880  	0.184290 
831.319696  	0.183222 
833.248512  	0.181513 
835.177328  	0.179479 
837.106144  	0.177106 
839.034960  	0.174269 
840.963776  	0.171578 
842.892592  	0.169102 
844.821408  	0.166538 
846.750224  	0.163733 
848.679040  	0.161296 
850.607856  	0.159082 
852.536672  	0.157068 
854.465488  	0.155327 
856.394304  	0.153803 
858.323120  	0.152166 
860.251936  	0.150107 
862.180752  	0.147959 
864.109568  	0.145911 
866.038384  	0.143986 
867.967200  	0.142194 
869.896016  	0.140937 
871.824832  	0.139804 
873.753648  	0.138887 
875.682464  	0.138736 
877.611280  	0.138641 
879.540096  	0.138647 
881.468912  	0.139599 
883.397728  	0.140115 
885.326544  	0.140235 
887.255360  	0.140134 
889.184176  	0.139183 
891.112992  	0.137281 
893.041808  	0.135860 
894.970624  	0.134206 
896.899440  	0.131778 
898.828256  	0.128558 
900.757072  	0.125374 
902.685888  	0.122890 
904.614704  	0.121455 
906.543520  	0.121463 
908.472336  	0.122697 
910.401152  	0.124781 
912.329968  	0.127497 
914.258784  	0.130397 
916.187600  	0.132939 
918.116416  	0.134791 
920.045232  	0.135565 
921.974048  	0.135260 
923.902864  	0.134658 
925.831680  	0.133811 
927.760496  	0.132670 
929.689312  	0.131759 
931.618128  	0.131557 
933.546944  	0.131726 
935.475760  	0.131871 
937.404576  	0.131938 
939.333392  	0.132442 
941.262208  	0.133570 
943.191024  	0.135530 
945.119840  	0.138784 
947.048656  	0.143049 
948.977472  	0.148243 
950.906288  	0.154341 
952.835104  	0.161077 
954.763920  	0.167669 
956.692736  	0.173600 
958.621552  	0.178697 
960.550368  	0.182100 
962.479184  	0.183304 
964.408000  	0.181826 
966.336816  	0.178124 
968.265632  	0.172297 
970.194448  	0.164770 
972.123264  	0.155940 
974.052080  	0.146554 
975.980896  	0.137507 
977.909712  	0.129086 
979.838528  	0.121829 
981.767344  	0.115983 
983.696160  	0.111720 
985.624976  	0.109352 
987.553792  	0.109003 
989.482608  	0.110512 
991.411424  	0.113625 
993.340240  	0.118177 
995.269056  	0.123913 
997.197872  	0.129871 
999.126688  	0.135646 
1001.055504  	0.141484 
1002.984320  	0.147220 
1004.913136  	0.152580 
1006.841952  	0.157324 
1008.770768  	0.161212 
1010.699584  	0.163867 
1012.628400  	0.165419 
1014.557216  	0.166043 
1016.486032  	0.166370 
1018.414848  	0.166619 
1020.343664  	0.166777 
1022.272480  	0.166581 
1024.201296  	0.165761 
1026.130112  	0.163160 
1028.058928  	0.162472 
1029.987744  	0.165068 
1031.916560  	0.166577 
1033.845376  	0.167067 
1035.774192  	0.166936 
1037.703008  	0.167726 
1039.631824  	0.171439 
1041.560640  	0.176581 
1043.489456  	0.183426 
1045.418272  	0.192523 
1047.347088  	0.203594 
1049.275904  	0.215471 
1051.204720  	0.227354 
1053.133536  	0.237507 
1055.062352  	0.245340 
1056.991168  	0.249551 
1058.919984  	0.253937 
1060.848800  	0.257074 
1062.777616  	0.256136 
1064.706432  	0.250719 
1066.635248  	0.245812 
1068.564064  	0.244773 
1070.492880  	0.241474 
1072.421696  	0.235042 
1074.350512  	0.229537 
1076.279328  	0.225636 
1078.208144  	0.223258 
1080.136960  	0.222487 
1082.065776  	0.222473 
1083.994592  	0.222413 
1085.923408  	0.222499 
1087.852224  	0.221272 
1089.781040  	0.219021 
1091.709856  	0.216241 
1093.638672  	0.211693 
1095.567488  	0.204813 
1097.496304  	0.197103 
1099.425120  	0.188577 
1101.353936  	0.179789 
1103.282752  	0.170840 
1105.211568  	0.161827 
1107.140384  	0.152766 
1109.069200  	0.144138 
1110.998016  	0.136173 
1112.926832  	0.128512 
1114.855648  	0.121043 
1116.784464  	0.113909 
1118.713280  	0.107553 
1120.642096  	0.101692 
1122.570912  	0.095643 
1124.499728  	0.090124 
1126.428544  	0.085189 
1128.357360  	0.080354 
1130.286176  	0.075810 
1132.214992  	0.072237 
1134.143808  	0.069290 
1136.072624  	0.066417 
1138.001440  	0.063763 
1139.930256  	0.061027 
1141.859072  	0.058716 
1143.787888  	0.056300 
1145.716704  	0.054218 
1147.645520  	0.052563 
1149.574336  	0.051199 
1151.503152  	0.050121 
1153.431968  	0.049753 
1155.360784  	0.049752 
1157.289600  	0.050261 
1159.218416  	0.051049 
1161.147232  	0.052172 
1163.076048  	0.053430 
1165.004864  	0.055145 
1166.933680  	0.056693 
1168.862496  	0.058457 
1170.791312  	0.060715 
1172.720128  	0.062906 
1174.648944  	0.065080 
1176.577760  	0.067433 
1178.506576  	0.069569 
1180.435392  	0.071791 
1182.364208  	0.073968 
1184.293024  	0.076274 
1186.221840  	0.078701 
1188.150656  	0.081407 
1190.079472  	0.084663 
1192.008288  	0.088555 
1193.937104  	0.093079 
1195.865920  	0.098323 
1197.794736  	0.103613 
1199.723552  	0.109410 
1201.652368  	0.115643 
1203.581184  	0.122071 
1205.510000  	0.128249 
1207.438816  	0.134588 
1209.367632  	0.140826 
1211.296448  	0.146613 
1213.225264  	0.151801 
1215.154080  	0.156158 
1217.082896  	0.159789 
1219.011712  	0.162560 
1220.940528  	0.164951 
1222.869344  	0.166948 
1224.798160  	0.168295 
1226.726976  	0.169206 
1228.655792  	0.169969 
1230.584608  	0.170268 
1232.513424  	0.169994 
1234.442240  	0.168835 
1236.371056  	0.166970 
1238.299872  	0.163877 
1240.228688  	0.158621 
1242.157504  	0.153164 
1244.086320  	0.148708 
1246.015136  	0.142682 
1247.943952  	0.135717 
1249.872768  	0.128815 
1251.801584  	0.122814 
1253.730400  	0.116790 
1255.659216  	0.110942 
1257.588032  	0.105450 
1259.516848  	0.100320 
1261.445664  	0.095602 
1263.374480  	0.091213 
1265.303296  	0.087314 
1267.232112  	0.084207 
1269.160928  	0.081954 
1271.089744  	0.080463 
1273.018560  	0.079631 
1274.947376  	0.079266 
1276.876192  	0.079025 
1278.805008  	0.078444 
1280.733824  	0.076958 
1282.662640  	0.074439 
1284.591456  	0.071185 
1286.520272  	0.068056 
1288.449088  	0.065426 
1290.377904  	0.063153 
1292.306720  	0.061484 
1294.235536  	0.059627 
1296.164352  	0.057059 
1298.093168  	0.053824 
1300.021984  	0.050559 
1301.950800  	0.047525 
1303.879616  	0.044915 
1305.808432  	0.042772 
1307.737248  	0.041137 
1309.666064  	0.039564 
1311.594880  	0.038849 
1313.523696  	0.038500 
1315.452512  	0.038181 
1317.381328  	0.038396 
1319.310144  	0.038898 
1321.238960  	0.039262 
1323.167776  	0.039819 
1325.096592  	0.040394 
1327.025408  	0.040617 
1328.954224  	0.040321 
1330.883040  	0.039664 
1332.811856  	0.038703 
1334.740672  	0.038189 
1336.669488  	0.037985 
1338.598304  	0.038071 
1340.527120  	0.037190 
1342.455936  	0.035683 
1344.384752  	0.035309 
1346.313568  	0.035789 
1348.242384  	0.036701 
1350.171200  	0.038111 
1352.100016  	0.039643 
1354.028832  	0.041376 
1355.957648  	0.043217 
1357.886464  	0.044949 
1359.815280  	0.046664 
1361.744096  	0.048635 
1363.672912  	0.049715 
1365.601728  	0.049582 
1367.530544  	0.049718 
1369.459360  	0.049587 
1371.388176  	0.048666 
1373.316992  	0.047384 
1375.245808  	0.045086 
1377.174624  	0.042631 
1379.103440  	0.040286 
1381.032256  	0.038145 
1382.961072  	0.036630 
1384.889888  	0.036157 
1386.818704  	0.036316 
1388.747520  	0.035419 
1390.676336  	0.033311 
1392.605152  	0.030295 
1394.533968  	0.029461 
1396.462784  	0.032411 
1398.391600  	0.033525 
1400.320416  	0.033110 
1402.249232  	0.032545 
1404.178048  	0.033234 
1406.106864  	0.034180 
1408.035680  	0.035682 
1409.964496  	0.037874 
1411.893312  	0.040540 
1413.822128  	0.043078 
1415.750944  	0.045987 
1417.679760  	0.048203 
1419.608576  	0.048635 
1421.537392  	0.047993 
1423.466208  	0.047745 
1425.395024  	0.046455 
1427.323840  	0.044974 
1429.252656  	0.043683 
1431.181472  	0.042700 
1433.110288  	0.042298 
1435.039104  	0.042638 
1436.967920  	0.042986 
1438.896736  	0.042955 
1440.825552  	0.043219 
1442.754368  	0.043772 
1444.683184  	0.043848 
1446.612000  	0.044049 
1448.540816  	0.043865 
1450.469632  	0.043704 
1452.398448  	0.044060 
1454.327264  	0.044688 
1456.256080  	0.045615 
1458.184896  	0.046046 
1460.113712  	0.045865 
1462.042528  	0.045980 
1463.971344  	0.046349 
1465.900160  	0.047966 
1467.828976  	0.049981 
1469.757792  	0.052360 
1471.686608  	0.055660 
1473.615424  	0.060382 
1475.544240  	0.063597 
1477.473056  	0.065915 
1479.401872  	0.066916 
1481.330688  	0.067805 
1483.259504  	0.067915 
1485.188320  	0.067559 
1487.117136  	0.066632 
1489.045952  	0.065565 
1490.974768  	0.062434 
1492.903584  	0.059008 
1494.832400  	0.056036 
1496.761216  	0.052634 
1498.690032  	0.049189 
1500.618848  	0.046840 
1502.547664  	0.044737 
1504.476480  	0.042626 
1506.405296  	0.041693 
1508.334112  	0.041935 
1510.262928  	0.040379 
1512.191744  	0.038621 
1514.120560  	0.037647 
1516.049376  	0.037848 
1517.978192  	0.037829 
1519.907008  	0.038490 
1521.835824  	0.040255 
1523.764640  	0.042517 
1525.693456  	0.045155 
1527.622272  	0.047003 
1529.551088  	0.047888 
1531.479904  	0.048375 
1533.408720  	0.047759 
1535.337536  	0.046476 
1537.266352  	0.044570 
1539.195168  	0.041357 
1541.123984  	0.039133 
1543.052800  	0.039497 
1544.981616  	0.038878 
1546.910432  	0.037175 
1548.839248  	0.036737 
1550.768064  	0.036912 
1552.696880  	0.036412 
1554.625696  	0.037034 
1556.554512  	0.036994 
1558.483328  	0.037457 
1560.412144  	0.041112 
1562.340960  	0.043682 
1564.269776  	0.045796 
1566.198592  	0.049234 
1568.127408  	0.052141 
1570.056224  	0.056775 
1571.985040  	0.060917 
1573.913856  	0.063235 
1575.842672  	0.064483 
1577.771488  	0.066559 
1579.700304  	0.066870 
1581.629120  	0.066828 
1583.557936  	0.066923 
1585.486752  	0.068152 
1587.415568  	0.070488 
1589.344384  	0.074319 
1591.273200  	0.078761 
1593.202016  	0.083954 
1595.130832  	0.088841 
1597.059648  	0.093728 
1598.988464  	0.097559 
1600.917280  	0.100680 
1602.846096  	0.102404 
1604.774912  	0.103445 
1606.703728  	0.103306 
1608.632544  	0.102953 
1610.561360  	0.101929 
1612.490176  	0.101291 
1614.418992  	0.100490 
1616.347808  	0.100986 
1618.276624  	0.103779 
1620.205440  	0.107377 
1622.134256  	0.110909 
1624.063072  	0.117164 
1625.991888  	0.123005 
1627.920704  	0.129543 
1629.849520  	0.136685 
1631.778336  	0.143192 
1633.707152  	0.148025 
1635.635968  	0.154780 
1637.564784  	0.162258 
1639.493600  	0.166847 
1641.422416  	0.170318 
1643.351232  	0.172861 
1645.280048  	0.173773 
1647.208864  	0.175262 
1649.137680  	0.175729 
1651.066496  	0.174589 
1652.995312  	0.172081 
1654.924128  	0.172920 
1656.852944  	0.171829 
1658.781760  	0.170274 
1660.710576  	0.168578 
1662.639392  	0.166655 
1664.568208  	0.164920 
1666.497024  	0.163604 
1668.425840  	0.161635 
1670.354656  	0.160012 
1672.283472  	0.159201 
1674.212288  	0.158488 
1676.141104  	0.158241 
1678.069920  	0.158773 
1679.998736  	0.159361 
1681.927552  	0.159193 
1683.856368  	0.158212 
1685.785184  	0.159161 
1687.714000  	0.159157 
1689.642816  	0.158056 
1691.571632  	0.156058 
1693.500448  	0.153900 
1695.429264  	0.150508 
1697.358080  	0.147480 
1699.286896  	0.144054 
1701.215712  	0.139223 
1703.144528  	0.136125 
1705.073344  	0.131764 
1707.002160  	0.126506 
1708.930976  	0.121844 
1710.859792  	0.116726 
1712.788608  	0.111437 
1714.717424  	0.105777 
1716.646240  	0.099004 
1718.575056  	0.091303 
1720.503872  	0.084959 
1722.432688  	0.079472 
1724.361504  	0.072961 
1726.290320  	0.067039 
1728.219136  	0.061729 
1730.147952  	0.057117 
1732.076768  	0.052620 
1734.005584  	0.047291 
1735.934400  	0.041514 
1737.863216  	0.038268 
1739.792032  	0.033741 
1741.720848  	0.030785 
1743.649664  	0.028290 
1745.578480  	0.025646 
1747.507296  	0.023241 
1749.436112  	0.021879 
1751.364928  	0.020333 
1753.293744  	0.018725 
1755.222560  	0.017359 
1757.151376  	0.016599 
1759.080192  	0.015254 
1761.009008  	0.014629 
1762.937824  	0.013940 
1764.866640  	0.013556 
1766.795456  	0.013315 
1768.724272  	0.013264 
1770.653088  	0.011782 
1772.581904  	0.011185 
1774.510720  	0.011510 
1776.439536  	0.011734 
1778.368352  	0.011397 
1780.297168  	0.011599 
1782.225984  	0.011278 
1784.154800  	0.011365 
1786.083616  	0.011109 
1788.012432  	0.010761 
1789.941248  	0.010476 
1791.870064  	0.010473 
1793.798880  	0.010143 
1795.727696  	0.010480 
1797.656512  	0.009987 
1799.585328  	0.009790 
1801.514144  	0.009979 
1803.442960  	0.009655 
1805.371776  	0.009090 
1807.300592  	0.009246 
1809.229408  	0.008822 
1811.158224  	0.008852 
1813.087040  	0.008609 
1815.015856  	0.008360 
1816.944672  	0.008359 
1818.873488  	0.008587 
1820.802304  	0.008500 
1822.731120  	0.008697 
1824.659936  	0.008707 
1826.588752  	0.008862 
1828.517568  	0.008497 
1830.446384  	0.008665 
1832.375200  	0.008474 
1834.304016  	0.008333 
1836.232832  	0.008139 
1838.161648  	0.008643 
1840.090464  	0.008529 
1842.019280  	0.008441 
1843.948096  	0.008037 
1845.876912  	0.008561 
1847.805728  	0.008800 
1849.734544  	0.008754 
1851.663360  	0.008247 
1853.592176  	0.008170 
1855.520992  	0.007922 
1857.449808  	0.008476 
1859.378624  	0.008545 
1861.307440  	0.008465 
1863.236256  	0.007951 
1865.165072  	0.007921 
1867.093888  	0.008111 
1869.022704  	0.008715 
1870.951520  	0.008192 
1872.880336  	0.008005 
1874.809152  	0.007723 
1876.737968  	0.008018 
1878.666784  	0.007947 
1880.595600  	0.007984 
1882.524416  	0.007841 
1884.453232  	0.007862 
1886.382048  	0.007510 
1888.310864  	0.007627 
1890.239680  	0.007710 
1892.168496  	0.007887 
1894.097312  	0.007571 
1896.026128  	0.007759 
1897.954944  	0.007615 
1899.883760  	0.007691 
1901.812576  	0.007590 
1903.741392  	0.007679 
1905.670208  	0.007056 
1907.599024  	0.006961 
1909.527840  	0.007110 
1911.456656  	0.007672 
1913.385472  	0.007535 
1915.314288  	0.007560 
1917.243104  	0.007336 
1919.171920  	0.007628 
1921.100736  	0.007773 
1923.029552  	0.008159 
1924.958368  	0.007211 
1926.887184  	0.007318 
1928.816000  	0.007155 
1930.744816  	0.006996 
1932.673632  	0.006752 
1934.602448  	0.007277 
1936.531264  	0.007234 
1938.460080  	0.007295 
1940.388896  	0.007153 
1942.317712  	0.007555 
1944.246528  	0.006860 
1946.175344  	0.007016 
1948.104160  	0.006037 
1950.032976  	0.006133 
1951.961792  	0.007388 
1953.890608  	0.008226 
1955.819424  	0.006936 
1957.748240  	0.006725 
1959.677056  	0.006772 
1961.605872  	0.006735 
1963.534688  	0.006382 
1965.463504  	0.007955 
1967.392320  	0.007299 
1969.321136  	0.006423 
1971.249952  	0.006627 
1973.178768  	0.007686 
1975.107584  	0.006068 
1977.036400  	0.006116 
1978.965216  	0.008110 
1980.894032  	0.008414 
1982.822848  	0.006486 
1984.751664  	0.006773 
1986.680480  	0.006893 
1988.609296  	0.007498 
1990.538112  	0.008177 
1992.466928  	0.008806 
1994.395744  	0.007966 
1996.324560  	0.007513 
1998.253376  	0.006556 
2000.182192  	0.007054 
2002.111008  	0.007071 
2004.039824  	0.006577 
2005.968640  	0.006004 
2007.897456  	0.007757 
2009.826272  	0.007891 
2011.755088  	0.007068 
2013.683904  	0.007047 
2015.612720  	0.007801 
2017.541536  	0.006590 
2019.470352  	0.006721 
2021.399168  	0.006619 
2023.327984  	0.007852 
2025.256800  	0.007155 
2027.185616  	0.006272 
2029.114432  	0.006363 
2031.043248  	0.007667 
2032.972064  	0.007192 
2034.900880  	0.008322 
2036.829696  	0.008123 
2038.758512  	0.007217 
2040.687328  	0.006567 
2042.616144  	0.006905 
2044.544960  	0.007479 
2046.473776  	0.008355 
2048.402592  	0.007521 
2050.331408  	0.008322 
2052.260224  	0.008368 
2054.189040  	0.008054 
2056.117856  	0.006694 
2058.046672  	0.006579 
2059.975488  	0.006684 
2061.904304  	0.007300 
2063.833120  	0.008230 
2065.761936  	0.008548 
2067.690752  	0.007604 
2069.619568  	0.007135 
2071.548384  	0.006453 
2073.477200  	0.006574 
2075.406016  	0.007397 
2077.334832  	0.007857 
2079.263648  	0.007111 
2081.192464  	0.006986 
2083.121280  	0.007294 
2085.050096  	0.007827 
2086.978912  	0.007902 
2088.907728  	0.007638 
2090.836544  	0.006775 
2092.765360  	0.006758 
2094.694176  	0.007175 
2096.622992  	0.007172 
2098.551808  	0.006727 
2100.480624  	0.006996 
2102.409440  	0.006638 
2104.338256  	0.006903 
2106.267072  	0.007222 
2108.195888  	0.007388 
2110.124704  	0.007589 
2112.053520  	0.008041 
2113.982336  	0.007949 
2115.911152  	0.007982 
2117.839968  	0.006994 
2119.768784  	0.006476 
2121.697600  	0.006290 
2123.626416  	0.006301 
2125.555232  	0.006240 
2127.484048  	0.006351 
2129.412864  	0.005991 
2131.341680  	0.005858 
2133.270496  	0.006310 
2135.199312  	0.006724 
2137.128128  	0.007092 
2139.056944  	0.007672 
2140.985760  	0.006953 
2142.914576  	0.007033 
2144.843392  	0.006329 
2146.772208  	0.006484 
2148.701024  	0.006452 
2150.629840  	0.006389 
2152.558656  	0.005266 
2154.487472  	0.005032 
2156.416288  	0.004902 
2158.345104  	0.006768 
2160.273920  	0.009905 
2162.202736  	0.010742 
2164.131552  	0.008732 
2166.060368  	0.009482 
2167.989184  	0.008626 
2169.918000  	0.007415 
2171.846816  	0.007029 
2173.775632  	0.007596 
2175.704448  	0.008680 
2177.633264  	0.009202 
2179.562080  	0.008056 
2181.490896  	0.007505 
2183.419712  	0.007299 
2185.348528  	0.007987 
2187.277344  	0.007851 
2189.206160  	0.007732 
2191.134976  	0.008834 
2193.063792  	0.010006 
2194.992608  	0.009427 
2196.921424  	0.008922 
2198.850240  	0.009046 
2200.779056  	0.009163 
2202.707872  	0.008670 
2204.636688  	0.008989 
2206.565504  	0.008808 
2208.494320  	0.008677 
2210.423136  	0.007523 
2212.351952  	0.007697 
2214.280768  	0.007825 
2216.209584  	0.007475 
2218.138400  	0.007586 
2220.067216  	0.007940 
2221.996032  	0.007833 
2223.924848  	0.008053 
2225.853664  	0.008380 
2227.782480  	0.008828 
2229.711296  	0.008614 
2231.640112  	0.008593 
2233.568928  	0.008055 
2235.497744  	0.007903 
2237.426560  	0.007564 
2239.355376  	0.007796 
2241.284192  	0.008089 
2243.213008  	0.008281 
2245.141824  	0.008178 
2247.070640  	0.007700 
2248.999456  	0.007221 
2250.928272  	0.007155 
2252.857088  	0.007268 
2254.785904  	0.007280 
2256.714720  	0.007992 
2258.643536  	0.008531 
2260.572352  	0.008112 
2262.501168  	0.008094 
2264.429984  	0.008149 
2266.358800  	0.008602 
2268.287616  	0.008351 
2270.216432  	0.007995 
2272.145248  	0.007853 
2274.074064  	0.008111 
2276.002880  	0.008066 
2277.931696  	0.008586 
2279.860512  	0.008834 
2281.789328  	0.008971 
2283.718144  	0.008875 
2285.646960  	0.009118 
2287.575776  	0.009267 
2289.504592  	0.008918 
2291.433408  	0.008603 
2293.362224  	0.008838 
2295.291040  	0.008917 
2297.219856  	0.009181 
2299.148672  	0.009254 
2301.077488  	0.009110 
2303.006304  	0.008962 
2304.935120  	0.008948 
2306.863936  	0.008871 
2308.792752  	0.008916 
2310.721568  	0.008725 
2312.650384  	0.008440 
2314.579200  	0.007916 
2316.508016  	0.007687 
2318.436832  	0.007156 
2320.365648  	0.006292 
2322.294464  	0.005573 
2324.223280  	0.004462 
2326.152096  	0.002758 
2328.080912  	0.001565 
2330.009728  	0.000612 
2331.938544  	-0.000227 
2333.867360  	-0.001410 
2335.796176  	-0.002438 
2337.724992  	-0.003024 
2339.653808  	-0.003198 
2341.582624  	-0.002857 
2343.511440  	-0.001306 
2345.440256  	0.000458 
2347.369072  	0.003010 
2349.297888  	0.003891 
2351.226704  	0.001866 
2353.155520  	-0.001090 
2355.084336  	-0.003804 
2357.013152  	-0.005628 
2358.941968  	-0.006541 
2360.870784  	-0.007529 
2362.799600  	-0.006807 
2364.728416  	-0.005588 
2366.657232  	-0.003863 
2368.586048  	-0.002043 
2370.514864  	0.000242 
2372.443680  	0.002428 
2374.372496  	0.004730 
2376.301312  	0.006561 
2378.230128  	0.007933 
2380.158944  	0.008609 
2382.087760  	0.008865 
2384.016576  	0.008776 
2385.945392  	0.008775 
2387.874208  	0.008468 
2389.803024  	0.008185 
2391.731840  	0.007935 
2393.660656  	0.008018 
2395.589472  	0.008188 
2397.518288  	0.008286 
2399.447104  	0.008292 
2401.375920  	0.008136 
2403.304736  	0.008154 
2405.233552  	0.008477 
2407.162368  	0.008818 
2409.091184  	0.008836 
2411.020000  	0.008613 
2412.948816  	0.008623 
2414.877632  	0.008550 
2416.806448  	0.008631 
2418.735264  	0.008878 
2420.664080  	0.008921 
2422.592896  	0.008721 
2424.521712  	0.008723 
2426.450528  	0.008806 
2428.379344  	0.008795 
2430.308160  	0.008916 
2432.236976  	0.009029 
2434.165792  	0.009084 
2436.094608  	0.009520 
2438.023424  	0.009717 
2439.952240  	0.009682 
2441.881056  	0.009779 
2443.809872  	0.009675 
2445.738688  	0.009582 
2447.667504  	0.009684 
2449.596320  	0.009729 
2451.525136  	0.009639 
2453.453952  	0.009610 
2455.382768  	0.009889 
2457.311584  	0.010126 
2459.240400  	0.010204 
2461.169216  	0.009949 
2463.098032  	0.009770 
2465.026848  	0.009915 
2466.955664  	0.010133 
2468.884480  	0.010030 
2470.813296  	0.010070 
2472.742112  	0.010000 
2474.670928  	0.009953 
2476.599744  	0.009958 
2478.528560  	0.009898 
2480.457376  	0.010017 
2482.386192  	0.010175 
2484.315008  	0.010211 
2486.243824  	0.010315 
2488.172640  	0.010270 
2490.101456  	0.010305 
2492.030272  	0.010616 
2493.959088  	0.010536 
2495.887904  	0.010205 
2497.816720  	0.010382 
2499.745536  	0.010653 
2501.674352  	0.010857 
2503.603168  	0.010833 
2505.531984  	0.010809 
2507.460800  	0.010738 
2509.389616  	0.010706 
2511.318432  	0.010490 
2513.247248  	0.010561 
2515.176064  	0.010740 
2517.104880  	0.011211 
2519.033696  	0.011494 
2520.962512  	0.011438 
2522.891328  	0.011502 
2524.820144  	0.011564 
2526.748960  	0.011388 
2528.677776  	0.011328 
2530.606592  	0.011252 
2532.535408  	0.011428 
2534.464224  	0.011787 
2536.393040  	0.011908 
2538.321856  	0.011612 
2540.250672  	0.011624 
2542.179488  	0.011721 
2544.108304  	0.011694 
2546.037120  	0.011672 
2547.965936  	0.012100 
2549.894752  	0.012471 
2551.823568  	0.012491 
2553.752384  	0.012528 
2555.681200  	0.012569 
2557.610016  	0.012665 
2559.538832  	0.012744 
2561.467648  	0.012855 
2563.396464  	0.013052 
2565.325280  	0.013114 
2567.254096  	0.012967 
2569.182912  	0.012787 
2571.111728  	0.012896 
2573.040544  	0.012809 
2574.969360  	0.012770 
2576.898176  	0.013046 
2578.826992  	0.013455 
2580.755808  	0.013443 
2582.684624  	0.013268 
2584.613440  	0.013126 
2586.542256  	0.013358 
2588.471072  	0.013746 
2590.399888  	0.013773 
2592.328704  	0.013714 
2594.257520  	0.013755 
2596.186336  	0.013933 
2598.115152  	0.014065 
2600.043968  	0.013994 
2601.972784  	0.014136 
2603.901600  	0.014334 
2605.830416  	0.014430 
2607.759232  	0.014283 
2609.688048  	0.014328 
2611.616864  	0.014532 
2613.545680  	0.014786 
2615.474496  	0.014741 
2617.403312  	0.014665 
2619.332128  	0.014840 
2621.260944  	0.014990 
2623.189760  	0.014931 
2625.118576  	0.015007 
2627.047392  	0.015257 
2628.976208  	0.015627 
2630.905024  	0.015724 
2632.833840  	0.015853 
2634.762656  	0.015958 
2636.691472  	0.015902 
2638.620288  	0.015899 
2640.549104  	0.015989 
2642.477920  	0.016039 
2644.406736  	0.016122 
2646.335552  	0.016335 
2648.264368  	0.016482 
2650.193184  	0.016609 
2652.122000  	0.016814 
2654.050816  	0.016896 
2655.979632  	0.016821 
2657.908448  	0.016780 
2659.837264  	0.016913 
2661.766080  	0.016925 
2663.694896  	0.017030 
2665.623712  	0.017086 
2667.552528  	0.017034 
2669.481344  	0.017201 
2671.410160  	0.017461 
2673.338976  	0.017544 
2675.267792  	0.017583 
2677.196608  	0.017750 
2679.125424  	0.017899 
2681.054240  	0.017930 
2682.983056  	0.018085 
2684.911872  	0.018258 
2686.840688  	0.018317 
2688.769504  	0.018374 
2690.698320  	0.018455 
2692.627136  	0.018569 
2694.555952  	0.018663 
2696.484768  	0.018606 
2698.413584  	0.018668 
2700.342400  	0.018749 
2702.271216  	0.018856 
2704.200032  	0.019006 
2706.128848  	0.019108 
2708.057664  	0.019192 
2709.986480  	0.019259 
2711.915296  	0.019305 
2713.844112  	0.019353 
2715.772928  	0.019533 
2717.701744  	0.019773 
2719.630560  	0.019796 
2721.559376  	0.019853 
2723.488192  	0.020016 
2725.417008  	0.020216 
2727.345824  	0.020330 
2729.274640  	0.020257 
2731.203456  	0.020276 
2733.132272  	0.020473 
2735.061088  	0.020549 
2736.989904  	0.020629 
2738.918720  	0.020642 
2740.847536  	0.020638 
2742.776352  	0.020774 
2744.705168  	0.020924 
2746.633984  	0.020898 
2748.562800  	0.020938 
2750.491616  	0.020995 
2752.420432  	0.021078 
2754.349248  	0.021138 
2756.278064  	0.021200 
2758.206880  	0.021243 
2760.135696  	0.021349 
2762.064512  	0.021319 
2763.993328  	0.021210 
2765.922144  	0.021247 
2767.850960  	0.021302 
2769.779776  	0.021339 
2771.708592  	0.021451 
2773.637408  	0.021417 
2775.566224  	0.021396 
2777.495040  	0.021489 
2779.423856  	0.021561 
2781.352672  	0.021638 
2783.281488  	0.021623 
2785.210304  	0.021558 
2787.139120  	0.021703 
2789.067936  	0.021841 
2790.996752  	0.021931 
2792.925568  	0.022071 
2794.854384  	0.022131 
2796.783200  	0.022010 
2798.712016  	0.021889 
2800.640832  	0.021996 
2802.569648  	0.022133 
2804.498464  	0.022201 
2806.427280  	0.022308 
2808.356096  	0.022388 
2810.284912  	0.022417 
2812.213728  	0.022358 
2814.142544  	0.022414 
2816.071360  	0.022504 
2818.000176  	0.022284 
2819.928992  	0.022121 
2821.857808  	0.022204 
2823.786624  	0.022101 
2825.715440  	0.021955 
2827.644256  	0.021819 
2829.573072  	0.021770 
2831.501888  	0.021583 
2833.430704  	0.021370 
2835.359520  	0.021150 
2837.288336  	0.020928 
2839.217152  	0.020685 
2841.145968  	0.020363 
2843.074784  	0.020097 
2845.003600  	0.020036 
2846.932416  	0.020010 
2848.861232  	0.019855 
2850.790048  	0.019586 
2852.718864  	0.019058 
2854.647680  	0.018353 
2856.576496  	0.017750 
2858.505312  	0.017010 
2860.434128  	0.016272 
2862.362944  	0.015600 
2864.291760  	0.014983 
2866.220576  	0.014234 
2868.149392  	0.013890 
2870.078208  	0.013856 
2872.007024  	0.013801 
2873.935840  	0.013821 
2875.864656  	0.013864 
2877.793472  	0.013845 
2879.722288  	0.013558 
2881.651104  	0.013001 
2883.579920  	0.012542 
2885.508736  	0.012598 
2887.437552  	0.012964 
2889.366368  	0.012999 
2891.295184  	0.012747 
2893.224000  	0.012471 
2895.152816  	0.012482 
2897.081632  	0.012088 
2899.010448  	0.010605 
2900.939264  	0.009426 
2902.868080  	0.010556 
2904.796896  	0.011807 
2906.725712  	0.012405 
2908.654528  	0.012930 
2910.583344  	0.013378 
2912.512160  	0.014331 
2914.440976  	0.015788 
2916.369792  	0.016842 
2918.298608  	0.017502 
2920.227424  	0.017922 
2922.156240  	0.018440 
2924.085056  	0.018984 
2926.013872  	0.019713 
2927.942688  	0.020574 
2929.871504  	0.021433 
2931.800320  	0.022051 
2933.729136  	0.022382 
2935.657952  	0.022595 
2937.586768  	0.022928 
2939.515584  	0.023043 
2941.444400  	0.023146 
2943.373216  	0.023317 
2945.302032  	0.023364 
2947.230848  	0.023333 
2949.159664  	0.022996 
2951.088480  	0.022363 
2953.017296  	0.021747 
2954.946112  	0.021005 
2956.874928  	0.020236 
2958.803744  	0.019448 
2960.732560  	0.018713 
2962.661376  	0.018061 
2964.590192  	0.017213 
2966.519008  	0.016058 
2968.447824  	0.014952 
2970.376640  	0.014171 
2972.305456  	0.013564 
2974.234272  	0.013551 
2976.163088  	0.013675 
2978.091904  	0.013721 
2980.020720  	0.013681 
2981.949536  	0.013612 
2983.878352  	0.013157 
2985.807168  	0.012280 
2987.735984  	0.011640 
2989.664800  	0.012074 
2991.593616  	0.014971 
2993.522432  	0.016725 
2995.451248  	0.017068 
2997.380064  	0.017840 
2999.308880  	0.018946 
3001.237696  	0.020122 
3003.166512  	0.021244 
3005.095328  	0.022344 
3007.024144  	0.023702 
3008.952960  	0.025124 
3010.881776  	0.026564 
3012.810592  	0.027793 
3014.739408  	0.028782 
3016.668224  	0.029897 
3018.597040  	0.030891 
3020.525856  	0.031680 
3022.454672  	0.032719 
3024.383488  	0.033772 
3026.312304  	0.034612 
3028.241120  	0.035305 
3030.169936  	0.035909 
3032.098752  	0.036723 
3034.027568  	0.037167 
3035.956384  	0.037511 
3037.885200  	0.038089 
3039.814016  	0.038776 
3041.742832  	0.039496 
3043.671648  	0.039845 
3045.600464  	0.040163 
3047.529280  	0.040485 
3049.458096  	0.040791 
3051.386912  	0.041046 
3053.315728  	0.041417 
3055.244544  	0.041923 
3057.173360  	0.042527 
3059.102176  	0.042923 
3061.030992  	0.043093 
3062.959808  	0.043404 
3064.888624  	0.043889 
3066.817440  	0.044441 
3068.746256  	0.044775 
3070.675072  	0.044912 
3072.603888  	0.045331 
3074.532704  	0.045948 
3076.461520  	0.046418 
3078.390336  	0.046828 
3080.319152  	0.047220 
3082.247968  	0.047497 
3084.176784  	0.047767 
3086.105600  	0.048058 
3088.034416  	0.048549 
3089.963232  	0.049110 
3091.892048  	0.049500 
3093.820864  	0.049780 
3095.749680  	0.050151 
3097.678496  	0.050377 
3099.607312  	0.050772 
3101.536128  	0.051163 
3103.464944  	0.051495 
3105.393760  	0.051900 
3107.322576  	0.052351 
3109.251392  	0.052646 
3111.180208  	0.052930 
3113.109024  	0.053225 
3115.037840  	0.053442 
3116.966656  	0.053805 
3118.895472  	0.054152 
3120.824288  	0.054337 
3122.753104  	0.054543 
3124.681920  	0.054894 
3126.610736  	0.055193 
3128.539552  	0.055319 
3130.468368  	0.055457 
3132.397184  	0.055510 
3134.326000  	0.055792 
3136.254816  	0.056032 
3138.183632  	0.056275 
3140.112448  	0.056422 
3142.041264  	0.056705 
3143.970080  	0.057108 
3145.898896  	0.057323 
3147.827712  	0.057493 
3149.756528  	0.057936 
3151.685344  	0.058447 
3153.614160  	0.058763 
3155.542976  	0.058865 
3157.471792  	0.059061 
3159.400608  	0.059584 
3161.329424  	0.059989 
3163.258240  	0.060242 
3165.187056  	0.060488 
3167.115872  	0.060770 
3169.044688  	0.060988 
3170.973504  	0.061115 
3172.902320  	0.061268 
3174.831136  	0.061502 
3176.759952  	0.061664 
3178.688768  	0.061913 
3180.617584  	0.062051 
3182.546400  	0.062005 
3184.475216  	0.062307 
3186.404032  	0.062461 
3188.332848  	0.062503 
3190.261664  	0.062632 
3192.190480  	0.062683 
3194.119296  	0.062506 
3196.048112  	0.062418 
3197.976928  	0.062587 
3199.905744  	0.062547 
3201.834560  	0.062453 
3203.763376  	0.062415 
3205.692192  	0.062278 
3207.621008  	0.062333 
3209.549824  	0.062271 
3211.478640  	0.061987 
3213.407456  	0.061893 
3215.336272  	0.061996 
3217.265088  	0.061856 
3219.193904  	0.061623 
3221.122720  	0.061331 
3223.051536  	0.061035 
3224.980352  	0.060831 
3226.909168  	0.060575 
3228.837984  	0.060376 
3230.766800  	0.060395 
3232.695616  	0.060389 
3234.624432  	0.060271 
3236.553248  	0.060137 
3238.482064  	0.060048 
3240.410880  	0.059990 
3242.339696  	0.059902 
3244.268512  	0.059900 
3246.197328  	0.060060 
3248.126144  	0.059933 
3250.054960  	0.059848 
3251.983776  	0.059915 
3253.912592  	0.060162 
3255.841408  	0.060178 
3257.770224  	0.060267 
3259.699040  	0.060471 
3261.627856  	0.060502 
3263.556672  	0.060523 
3265.485488  	0.060524 
3267.414304  	0.060685 
3269.343120  	0.060836 
3271.271936  	0.061087 
3273.200752  	0.061489 
3275.129568  	0.061617 
3277.058384  	0.061545 
3278.987200  	0.061713 
3280.916016  	0.061779 
3282.844832  	0.061884 
3284.773648  	0.062058 
3286.702464  	0.062109 
3288.631280  	0.062388 
3290.560096  	0.062608 
3292.488912  	0.062764 
3294.417728  	0.062945 
3296.346544  	0.063111 
3298.275360  	0.063208 
3300.204176  	0.063527 
3302.132992  	0.063753 
3304.061808  	0.063922 
3305.990624  	0.064144 
3307.919440  	0.064199 
3309.848256  	0.064307 
3311.777072  	0.064526 
3313.705888  	0.064911 
3315.634704  	0.065290 
3317.563520  	0.065436 
3319.492336  	0.065535 
3321.421152  	0.065499 
3323.349968  	0.065677 
3325.278784  	0.066116 
3327.207600  	0.066196 
3329.136416  	0.065985 
3331.065232  	0.065795 
3332.994048  	0.066016 
3334.922864  	0.066002 
3336.851680  	0.065780 
3338.780496  	0.066018 
3340.709312  	0.066027 
3342.638128  	0.065797 
3344.566944  	0.065638 
3346.495760  	0.065542 
3348.424576  	0.065285 
3350.353392  	0.064991 
3352.282208  	0.064856 
3354.211024  	0.064711 
3356.139840  	0.064631 
3358.068656  	0.064381 
3359.997472  	0.064043 
3361.926288  	0.063802 
3363.855104  	0.063432 
3365.783920  	0.063171 
3367.712736  	0.063061 
3369.641552  	0.062618 
3371.570368  	0.062209 
3373.499184  	0.061952 
3375.428000  	0.061475 
3377.356816  	0.061049 
3379.285632  	0.060945 
3381.214448  	0.060921 
3383.143264  	0.060682 
3385.072080  	0.060400 
3387.000896  	0.059942 
3388.929712  	0.059653 
3390.858528  	0.059377 
3392.787344  	0.059135 
3394.716160  	0.058652 
3396.644976  	0.058337 
3398.573792  	0.058051 
3400.502608  	0.057600 
3402.431424  	0.057110 
3404.360240  	0.056641 
3406.289056  	0.056331 
3408.217872  	0.055974 
3410.146688  	0.055600 
3412.075504  	0.055528 
3414.004320  	0.055504 
3415.933136  	0.055123 
3417.861952  	0.054530 
3419.790768  	0.054275 
3421.719584  	0.054001 
3423.648400  	0.053457 
3425.577216  	0.053118 
3427.506032  	0.052811 
3429.434848  	0.052301 
3431.363664  	0.052001 
3433.292480  	0.051746 
3435.221296  	0.051479 
3437.150112  	0.051066 
3439.078928  	0.050806 
3441.007744  	0.050608 
3442.936560  	0.050366 
3444.865376  	0.049925 
3446.794192  	0.049374 
3448.723008  	0.048971 
3450.651824  	0.048283 
3452.580640  	0.047711 
3454.509456  	0.047235 
3456.438272  	0.046828 
3458.367088  	0.046725 
3460.295904  	0.046520 
3462.224720  	0.045977 
3464.153536  	0.045204 
3466.082352  	0.044673 
3468.011168  	0.044347 
3469.939984  	0.043877 
3471.868800  	0.043257 
3473.797616  	0.042741 
3475.726432  	0.042138 
3477.655248  	0.041563 
3479.584064  	0.041409 
3481.512880  	0.041136 
3483.441696  	0.040432 
3485.370512  	0.039726 
3487.299328  	0.039345 
3489.228144  	0.038921 
3491.156960  	0.038286 
3493.085776  	0.037823 
3495.014592  	0.037300 
3496.943408  	0.036977 
3498.872224  	0.036621 
3500.801040  	0.036411 
3502.729856  	0.036054 
3504.658672  	0.035463 
3506.587488  	0.034665 
3508.516304  	0.034405 
3510.445120  	0.034336 
3512.373936  	0.033795 
3514.302752  	0.033191 
3516.231568  	0.032734 
3518.160384  	0.032303 
3520.089200  	0.031969 
3522.018016  	0.032103 
3523.946832  	0.032379 
3525.875648  	0.031828 
3527.804464  	0.031052 
3529.733280  	0.030556 
3531.662096  	0.030003 
3533.590912  	0.029495 
3535.519728  	0.029461 
3537.448544  	0.029326 
3539.377360  	0.028678 
3541.306176  	0.028122 
3543.234992  	0.028016 
3545.163808  	0.028601 
3547.092624  	0.028174 
3549.021440  	0.026806 
3550.950256  	0.026216 
3552.879072  	0.026270 
3554.807888  	0.025939 
3556.736704  	0.025359 
3558.665520  	0.025114 
3560.594336  	0.025194 
3562.523152  	0.024856 
3564.451968  	0.024737 
3566.380784  	0.025252 
3568.309600  	0.024758 
3570.238416  	0.023245 
3572.167232  	0.022169 
3574.096048  	0.021558 
3576.024864  	0.021000 
3577.953680  	0.020644 
3579.882496  	0.020584 
3581.811312  	0.020330 
3583.740128  	0.019991 
3585.668944  	0.019987 
3587.597760  	0.020552 
3589.526576  	0.019588 
3591.455392  	0.017835 
3593.384208  	0.017404 
3595.313024  	0.017038 
3597.241840  	0.016369 
3599.170656  	0.015552 
3601.099472  	0.015059 
3603.028288  	0.014805 
3604.957104  	0.014274 
3606.885920  	0.013956 
3608.814736  	0.014100 
3610.743552  	0.013280 
3612.672368  	0.012434 
3614.601184  	0.011930 
3616.530000  	0.010790 
3618.458816  	0.010090 
3620.387632  	0.009943 
3622.316448  	0.009190 
3624.245264  	0.008396 
3626.174080  	0.007531 
3628.102896  	0.007072 
3630.031712  	0.007585 
3631.960528  	0.006734 
3633.889344  	0.005790 
3635.818160  	0.004682 
3637.746976  	0.003922 
3639.675792  	0.003724 
3641.604608  	0.003090 
3643.533424  	0.001980 
3645.462240  	0.000972 
3647.391056  	0.000621 
3649.319872  	0.000294 
3651.248688  	0.000372 
3653.177504  	-0.000756 
3655.106320  	-0.002383 
3657.035136  	-0.002788 
3658.963952  	-0.003222 
3660.892768  	-0.004184 
3662.821584  	-0.004741 
3664.750400  	-0.004793 
3666.679216  	-0.005320 
3668.608032  	-0.006023 
3670.536848  	-0.005834 
3672.465664  	-0.005684 
3674.394480  	-0.007300 
3676.323296  	-0.006888 
3678.252112  	-0.005244 
3680.180928  	-0.004868 
3682.109744  	-0.005313 
3684.038560  	-0.005996 
3685.967376  	-0.006638 
3687.896192  	-0.007324 
3689.825008  	-0.006744 
3691.753824  	-0.005987 
3693.682640  	-0.005589 
3695.611456  	-0.005381 
3697.540272  	-0.004899 
3699.469088  	-0.004836 
3701.397904  	-0.004401 
3703.326720  	-0.003545 
3705.255536  	-0.003333 
3707.184352  	-0.003532 
3709.113168  	-0.003504 
3711.041984  	-0.003006 
3712.970800  	-0.002167 
3714.899616  	-0.001727 
3716.828432  	-0.002112 
3718.757248  	-0.002470 
3720.686064  	-0.002557 
3722.614880  	-0.001940 
3724.543696  	-0.001228 
3726.472512  	-0.000974 
3728.401328  	-0.001715 
3730.330144  	-0.003203 
3732.258960  	-0.003487 
3734.187776  	-0.001382 
3736.116592  	0.000053 
3738.045408  	-0.001158 
3739.974224  	-0.001968 
3741.903040  	-0.002249 
3743.831856  	-0.001984 
3745.760672  	-0.000935 
3747.689488  	-0.002305 
3749.618304  	-0.003630 
3751.547120  	-0.002874 
3753.475936  	-0.001133 
3755.404752  	-0.001355 
3757.333568  	-0.001872 
3759.262384  	-0.001893 
3761.191200  	-0.001463 
3763.120016  	-0.001686 
3765.048832  	-0.001998 
3766.977648  	-0.001918 
3768.906464  	-0.002159 
3770.835280  	-0.001511 
3772.764096  	-0.001277 
3774.692912  	-0.001691 
3776.621728  	-0.002233 
3778.550544  	-0.002516 
3780.479360  	-0.001945 
3782.408176  	-0.001887 
3784.336992  	-0.002100 
3786.265808  	-0.001948 
3788.194624  	-0.001933 
3790.123440  	-0.002040 
3792.052256  	-0.002084 
3793.981072  	-0.002279 
3795.909888  	-0.002465 
3797.838704  	-0.002116 
3799.767520  	-0.002952 
3801.696336  	-0.002934 
3803.625152  	-0.002158 
3805.553968  	-0.002996 
3807.482784  	-0.002463 
3809.411600  	-0.001579 
3811.340416  	-0.001578 
3813.269232  	-0.002166 
3815.198048  	-0.003139 
3817.126864  	-0.002596 
3819.055680  	-0.002885 
3820.984496  	-0.002949 
3822.913312  	-0.001675 
3824.842128  	-0.002008 
3826.770944  	-0.002268 
3828.699760  	-0.002117 
3830.628576  	-0.002551 
3832.557392  	-0.002532 
3834.486208  	-0.002748 
3836.415024  	-0.003074 
3838.343840  	-0.002457 
3840.272656  	-0.001861 
3842.201472  	-0.002056 
3844.130288  	-0.002110 
3846.059104  	-0.001911 
3847.987920  	-0.002178 
3849.916736  	-0.002720 
3851.845552  	-0.003331 
3853.774368  	-0.002083 
3855.703184  	-0.001157 
3857.632000  	-0.001513 
3859.560816  	-0.001985 
3861.489632  	-0.002231 
3863.418448  	-0.002063 
3865.347264  	-0.001511 
3867.276080  	-0.001783 
3869.204896  	-0.002072 
3871.133712  	-0.000878 
3873.062528  	-0.001393 
3874.991344  	-0.001533 
3876.920160  	-0.001971 
3878.848976  	-0.002338 
3880.777792  	-0.001478 
3882.706608  	-0.001250 
3884.635424  	-0.001648 
3886.564240  	-0.001050 
3888.493056  	-0.001541 
3890.421872  	-0.001896 
3892.350688  	-0.001340 
3894.279504  	-0.001487 
3896.208320  	-0.001831 
3898.137136  	-0.001690 
3900.065952  	-0.001077 
3901.994768  	-0.000503 
3903.923584  	-0.000078 
3905.852400  	-0.000322 
3907.781216  	-0.001300 
3909.710032  	-0.001856 
3911.638848  	-0.002034 
3913.567664  	-0.002020 
3915.496480  	-0.001343 
3917.425296  	-0.000473 
3919.354112  	-0.000710 
3921.282928  	-0.001037 
3923.211744  	-0.001130 
3925.140560  	-0.000859 
3927.069376  	-0.001335 
3928.998192  	-0.001690 
3930.927008  	-0.001042 
3932.855824  	-0.000483 
3934.784640  	-0.001128 
3936.713456  	-0.001399 
3938.642272  	-0.001265 
3940.571088  	-0.001360 
3942.499904  	-0.000903 
3944.428720  	-0.000645 
3946.357536  	-0.000966 
3948.286352  	-0.000980 
3950.215168  	-0.001335 
3952.143984  	-0.001728 
3954.072800  	-0.001900 
3956.001616  	-0.001875 
3957.930432  	-0.001561 
3959.859248  	-0.001284 
3961.788064  	-0.001228 
3963.716880  	-0.001346 
3965.645696  	-0.001638 
3967.574512  	-0.001427 
3969.503328  	-0.001336 
3971.432144  	-0.001546 
3973.360960  	-0.001641 
3975.289776  	-0.001521 
3977.218592  	-0.001481 
3979.147408  	-0.001538 
3981.076224  	-0.001689 
3983.005040  	-0.001756 
3984.933856  	-0.001609 
3986.862672  	-0.001420 
3988.791488  	-0.001516 
3990.720304  	-0.001537 
3992.649120  	-0.001483 
3994.577936  	-0.001479 
3996.506752  	-0.001512 
3998.435568  	-0.001473 
4000.364384  	-0.001545 