##TITLE=No Description
##DATA TYPE=INFRARED SPECTRUM
##XUNITS=1/CM
##YUNITS=Abs
399.264912  	0.613825 
401.193728  	0.606752 
403.122544  	0.604399 
405.051360  	0.587373 
406.980176  	0.573846 
408.908992  	0.563618 
410.837808  	0.575443 
412.766624  	0.586664 
414.695440  	0.583977 
416.624256  	0.562059 
418.553072  	0.543721 
420.481888  	0.539611 
422.410704  	0.560251 
424.339520  	0.565492 
426.268336  	0.558376 
428.197152  	0.544472 
430.125968  	0.536788 
432.054784  	0.533087 
433.983600  	0.536811 
435.912416  	0.535529 
437.841232  	0.529670 
439.770048  	0.526274 
441.698864  	0.531296 
443.627680  	0.525997 
445.556496  	0.521286 
447.485312  	0.516249 
449.414128  	0.520998 
451.342944  	0.521185 
453.271760  	0.517515 
455.200576  	0.510942 
457.129392  	0.512001 
459.058208  	0.510741 
460.987024  	0.515755 
462.915840  	0.517469 
464.844656  	0.514894 
466.773472  	0.509507 
468.702288  	0.511246 
470.631104  	0.507572 
472.559920  	0.513416 
474.488736  	0.513163 
476.417552  	0.510566 
478.346368  	0.504302 
480.275184  	0.501925 
482.204000  	0.504411 
484.132816  	0.510255 
486.061632  	0.502389 
487.990448  	0.501983 
489.919264  	0.506045 
491.848080  	0.507514 
493.776896  	0.500255 
495.705712  	0.495930 
497.634528  	0.494088 
499.563344  	0.495461 
501.492160  	0.493948 
503.420976  	0.492818 
505.349792  	0.494887 
507.278608  	0.498395 
509.207424  	0.494545 
511.136240  	0.495257 
513.065056  	0.494967 
514.993872  	0.494204 
516.922688  	0.493309 
518.851504  	0.497127 
520.780320  	0.496784 
522.709136  	0.496628 
524.637952  	0.493462 
526.566768  	0.491223 
528.495584  	0.489552 
530.424400  	0.488663 
532.353216  	0.486464 
534.282032  	0.482542 
536.210848  	0.477033 
538.139664  	0.473595 
540.068480  	0.469921 
541.997296  	0.465977 
543.926112  	0.461292 
545.854928  	0.458968 
547.783744  	0.456342 
549.712560  	0.453396 
551.641376  	0.447491 
553.570192  	0.444317 
555.499008  	0.441630 
557.427824  	0.439154 
559.356640  	0.435355 
561.285456  	0.432307 
563.214272  	0.428063 
565.143088  	0.425435 
567.071904  	0.421737 
569.000720  	0.418680 
570.929536  	0.415358 
572.858352  	0.413120 
574.787168  	0.409674 
576.715984  	0.406846 
578.644800  	0.403118 
580.573616  	0.399368 
582.502432  	0.394988 
584.431248  	0.392937 
586.360064  	0.391305 
588.288880  	0.388759 
590.217696  	0.386472 
592.146512  	0.385346 
594.075328  	0.381984 
596.004144  	0.379733 
597.932960  	0.378675 
599.861776  	0.377731 
601.790592  	0.376514 
603.719408  	0.375392 
605.648224  	0.373086 
607.577040  	0.372304 
609.505856  	0.371331 
611.434672  	0.370460 
613.363488  	0.367840 
615.292304  	0.365909 
617.221120  	0.363949 
619.149936  	0.362408 
621.078752  	0.360034 
623.007568  	0.358305 
624.936384  	0.356861 
626.865200  	0.355393 
628.794016  	0.353667 
630.722832  	0.351925 
632.651648  	0.350515 
634.580464  	0.349991 
636.509280  	0.350145 
638.438096  	0.349830 
640.366912  	0.348400 
642.295728  	0.347221 
644.224544  	0.345074 
646.153360  	0.342061 
648.082176  	0.338219 
650.010992  	0.335295 
651.939808  	0.331620 
653.868624  	0.328416 
655.797440  	0.324921 
657.726256  	0.321379 
659.655072  	0.317441 
661.583888  	0.313789 
663.512704  	0.310236 
665.441520  	0.307132 
667.370336  	0.301690 
669.299152  	0.298426 
671.227968  	0.297630 
673.156784  	0.295473 
675.085600  	0.293067 
677.014416  	0.291139 
678.943232  	0.289517 
680.872048  	0.287828 
682.800864  	0.286305 
684.729680  	0.285160 
686.658496  	0.282885 
688.587312  	0.280894 
690.516128  	0.279148 
692.444944  	0.277841 
694.373760  	0.275936 
696.302576  	0.274523 
698.231392  	0.272680 
700.160208  	0.270022 
702.089024  	0.267103 
704.017840  	0.265292 
705.946656  	0.262847 
707.875472  	0.260609 
709.804288  	0.258505 
711.733104  	0.256931 
713.661920  	0.255384 
715.590736  	0.254453 
717.519552  	0.253687 
719.448368  	0.253490 
721.377184  	0.254108 
723.306000  	0.254616 
725.234816  	0.254091 
727.163632  	0.252492 
729.092448  	0.250295 
731.021264  	0.248103 
732.950080  	0.245658 
734.878896  	0.242928 
736.807712  	0.239993 
738.736528  	0.237954 
740.665344  	0.236181 
742.594160  	0.235127 
744.522976  	0.233804 
746.451792  	0.232539 
748.380608  	0.231046 
750.309424  	0.230008 
752.238240  	0.229126 
754.167056  	0.228421 
756.095872  	0.227539 
758.024688  	0.226395 
759.953504  	0.225469 
761.882320  	0.225241 
763.811136  	0.224921 
765.739952  	0.224084 
767.668768  	0.222929 
769.597584  	0.221472 
771.526400  	0.220649 
773.455216  	0.221815 
775.384032  	0.223938 
777.312848  	0.226696 
779.241664  	0.229593 
781.170480  	0.230649 
783.099296  	0.228006 
785.028112  	0.223088 
786.956928  	0.217409 
788.885744  	0.212720 
790.814560  	0.209227 
792.743376  	0.206809 
794.672192  	0.204869 
796.601008  	0.203754 
798.529824  	0.202007 
800.458640  	0.199165 
802.387456  	0.195921 
804.316272  	0.194074 
806.245088  	0.193146 
808.173904  	0.192934 
810.102720  	0.192741 
812.031536  	0.192283 
813.960352  	0.191799 
815.889168  	0.191414 
817.817984  	0.190969 
819.746800  	0.190630 
821.675616  	0.190250 
823.604432  	0.189605 
825.533248  	0.188199 
827.462064  	0.186679 
829.390880  	0.185473 
831.319696  	0.184392 
833.248512  	0.182947 
835.177328  	0.180927 
837.106144  	0.178335 
839.034960  	0.175568 
840.963776  	0.172854 
842.892592  	0.170370 
844.821408  	0.167425 
846.750224  	0.164795 
848.679040  	0.162688 
850.607856  	0.160870 
852.536672  	0.159485 
854.465488  	0.157614 
856.394304  	0.156017 
858.323120  	0.154452 
860.251936  	0.152596 
862.180752  	0.150504 
864.109568  	0.148746 
866.038384  	0.147260 
867.967200  	0.145639 
869.896016  	0.144162 
871.824832  	0.142806 
873.753648  	0.142250 
875.682464  	0.142227 
877.611280  	0.142033 
879.540096  	0.141927 
881.468912  	0.142669 
883.397728  	0.143077 
885.326544  	0.143088 
887.255360  	0.142629 
889.184176  	0.141627 
891.112992  	0.140058 
893.041808  	0.138561 
894.970624  	0.136707 
896.899440  	0.134202 
898.828256  	0.131237 
900.757072  	0.128276 
902.685888  	0.125879 
904.614704  	0.124737 
906.543520  	0.124449 
908.472336  	0.125155 
910.401152  	0.126913 
912.329968  	0.129374 
914.258784  	0.131805 
916.187600  	0.133952 
918.116416  	0.135412 
920.045232  	0.135903 
921.974048  	0.135566 
923.902864  	0.134905 
925.831680  	0.133919 
927.760496  	0.132873 
929.689312  	0.131938 
931.618128  	0.131561 
933.546944  	0.131364 
935.475760  	0.131222 
937.404576  	0.131160 
939.333392  	0.131560 
941.262208  	0.132485 
943.191024  	0.134107 
945.119840  	0.136895 
947.048656  	0.140638 
948.977472  	0.145311 
950.906288  	0.150727 
952.835104  	0.156655 
954.763920  	0.162468 
956.692736  	0.167801 
958.621552  	0.172454 
960.550368  	0.175452 
962.479184  	0.176354 
964.408000  	0.174825 
966.336816  	0.171325 
968.265632  	0.165629 
970.194448  	0.158670 
972.123264  	0.150577 
974.052080  	0.141840 
975.980896  	0.133229 
977.909712  	0.125352 
979.838528  	0.118706 
981.767344  	0.113148 
983.696160  	0.109046 
985.624976  	0.106931 
987.553792  	0.106721 
989.482608  	0.107854 
991.411424  	0.110682 
993.340240  	0.115001 
995.269056  	0.120284 
997.197872  	0.125769 
999.126688  	0.130991 
1001.055504  	0.136439 
1002.984320  	0.141828 
1004.913136  	0.146888 
1006.841952  	0.151332 
1008.770768  	0.155263 
1010.699584  	0.158004 
1012.628400  	0.159378 
1014.557216  	0.159975 
1016.486032  	0.160351 
1018.414848  	0.160552 
1020.343664  	0.161006 
1022.272480  	0.160900 
1024.201296  	0.160159 
1026.130112  	0.158276 
1028.058928  	0.157926 
1029.987744  	0.159894 
1031.916560  	0.161030 
1033.845376  	0.161762 
1035.774192  	0.162297 
1037.703008  	0.163581 
1039.631824  	0.167384 
1041.560640  	0.172462 
1043.489456  	0.178847 
1045.418272  	0.187087 
1047.347088  	0.197700 
1049.275904  	0.209242 
1051.204720  	0.220501 
1053.133536  	0.230251 
1055.062352  	0.237809 
1056.991168  	0.242398 
1058.919984  	0.247042 
1060.848800  	0.249779 
1062.777616  	0.249202 
1064.706432  	0.244845 
1066.635248  	0.240766 
1068.564064  	0.239199 
1070.492880  	0.235905 
1072.421696  	0.230297 
1074.350512  	0.224884 
1076.279328  	0.221068 
1078.208144  	0.219023 
1080.136960  	0.217855 
1082.065776  	0.217382 
1083.994592  	0.216809 
1085.923408  	0.216270 
1087.852224  	0.215000 
1089.781040  	0.213113 
1091.709856  	0.210611 
1093.638672  	0.206210 
1095.567488  	0.199430 
1097.496304  	0.192259 
1099.425120  	0.184348 
1101.353936  	0.176079 
1103.282752  	0.167626 
1105.211568  	0.159031 
1107.140384  	0.150230 
1109.069200  	0.141870 
1110.998016  	0.134186 
1112.926832  	0.126713 
1114.855648  	0.119610 
1116.784464  	0.112827 
1118.713280  	0.106668 
1120.642096  	0.100903 
1122.570912  	0.095231 
1124.499728  	0.089975 
1126.428544  	0.084986 
1128.357360  	0.080225 
1130.286176  	0.075903 
1132.214992  	0.072381 
1134.143808  	0.069557 
1136.072624  	0.066972 
1138.001440  	0.064257 
1139.930256  	0.061576 
1141.859072  	0.059252 
1143.787888  	0.056989 
1145.716704  	0.054996 
1147.645520  	0.053347 
1149.574336  	0.052133 
1151.503152  	0.051180 
1153.431968  	0.050629 
1155.360784  	0.050475 
1157.289600  	0.051032 
1159.218416  	0.051694 
1161.147232  	0.052726 
1163.076048  	0.053924 
1165.004864  	0.055347 
1166.933680  	0.056696 
1168.862496  	0.058403 
1170.791312  	0.060467 
1172.720128  	0.062511 
1174.648944  	0.064335 
1176.577760  	0.066336 
1178.506576  	0.068394 
1180.435392  	0.070436 
1182.364208  	0.072328 
1184.293024  	0.074357 
1186.221840  	0.076609 
1188.150656  	0.079044 
1190.079472  	0.081981 
1192.008288  	0.085443 
1193.937104  	0.089457 
1195.865920  	0.094165 
1197.794736  	0.099077 
1199.723552  	0.104621 
1201.652368  	0.110438 
1203.581184  	0.116363 
1205.510000  	0.122114 
1207.438816  	0.127938 
1209.367632  	0.133562 
1211.296448  	0.138932 
1213.225264  	0.143912 
1215.154080  	0.148115 
1217.082896  	0.151535 
1219.011712  	0.154333 
1220.940528  	0.157048 
1222.869344  	0.159170 
1224.798160  	0.160957 
1226.726976  	0.162012 
1228.655792  	0.162722 
1230.584608  	0.163007 
1232.513424  	0.162872 
1234.442240  	0.161860 
1236.371056  	0.160120 
1238.299872  	0.157421 
1240.228688  	0.152816 
1242.157504  	0.148050 
1244.086320  	0.143803 
1246.015136  	0.138084 
1247.943952  	0.131776 
1249.872768  	0.125401 
1251.801584  	0.119602 
1253.730400  	0.113972 
1255.659216  	0.108476 
1257.588032  	0.103225 
1259.516848  	0.098270 
1261.445664  	0.093707 
1263.374480  	0.089611 
1265.303296  	0.085772 
1267.232112  	0.082668 
1269.160928  	0.080413 
1271.089744  	0.078879 
1273.018560  	0.078042 
1274.947376  	0.077699 
1276.876192  	0.077328 
1278.805008  	0.076535 
1280.733824  	0.075171 
1282.662640  	0.072751 
1284.591456  	0.069593 
1286.520272  	0.066503 
1288.449088  	0.063895 
1290.377904  	0.061730 
1292.306720  	0.060092 
1294.235536  	0.058229 
1296.164352  	0.055752 
1298.093168  	0.052705 
1300.021984  	0.049554 
1301.950800  	0.046636 
1303.879616  	0.044209 
1305.808432  	0.042199 
1307.737248  	0.040602 
1309.666064  	0.039054 
1311.594880  	0.038337 
1313.523696  	0.038095 
1315.452512  	0.037886 
1317.381328  	0.038109 
1319.310144  	0.038614 
1321.238960  	0.039012 
1323.167776  	0.039576 
1325.096592  	0.040053 
1327.025408  	0.040233 
1328.954224  	0.039959 
1330.883040  	0.039318 
1332.811856  	0.038408 
1334.740672  	0.037800 
1336.669488  	0.037480 
1338.598304  	0.037643 
1340.527120  	0.037081 
1342.455936  	0.035609 
1344.384752  	0.035143 
1346.313568  	0.035523 
1348.242384  	0.036415 
1350.171200  	0.037760 
1352.100016  	0.039302 
1354.028832  	0.040991 
1355.957648  	0.042719 
1357.886464  	0.044273 
1359.815280  	0.045752 
1361.744096  	0.047779 
1363.672912  	0.049207 
1365.601728  	0.048978 
1367.530544  	0.049091 
1369.459360  	0.049177 
1371.388176  	0.048222 
1373.316992  	0.047182 
1375.245808  	0.045513 
1377.174624  	0.043332 
1379.103440  	0.041254 
1381.032256  	0.039190 
1382.961072  	0.037753 
1384.889888  	0.037185 
1386.818704  	0.037542 
1388.747520  	0.036808 
1390.676336  	0.034613 
1392.605152  	0.031919 
1394.533968  	0.031743 
1396.462784  	0.034113 
1398.391600  	0.034705 
1400.320416  	0.034618 
1402.249232  	0.034084 
1404.178048  	0.034993 
1406.106864  	0.036028 
1408.035680  	0.037098 
1409.964496  	0.038952 
1411.893312  	0.041338 
1413.822128  	0.043388 
1415.750944  	0.045728 
1417.679760  	0.047580 
1419.608576  	0.048395 
1421.537392  	0.047530 
1423.466208  	0.047087 
1425.395024  	0.046021 
1427.323840  	0.044251 
1429.252656  	0.043063 
1431.181472  	0.042262 
1433.110288  	0.041606 
1435.039104  	0.041531 
1436.967920  	0.042827 
1438.896736  	0.042913 
1440.825552  	0.042738 
1442.754368  	0.043117 
1444.683184  	0.043084 
1446.612000  	0.043240 
1448.540816  	0.043479 
1450.469632  	0.043359 
1452.398448  	0.043422 
1454.327264  	0.043475 
1456.256080  	0.044431 
1458.184896  	0.046025 
1460.113712  	0.045607 
1462.042528  	0.044937 
1463.971344  	0.045052 
1465.900160  	0.047138 
1467.828976  	0.048733 
1469.757792  	0.050379 
1471.686608  	0.053503 
1473.615424  	0.058750 
1475.544240  	0.061762 
1477.473056  	0.063814 
1479.401872  	0.064454 
1481.330688  	0.065316 
1483.259504  	0.065444 
1485.188320  	0.064890 
1487.117136  	0.063913 
1489.045952  	0.063140 
1490.974768  	0.060815 
1492.903584  	0.057173 
1494.832400  	0.053805 
1496.761216  	0.050916 
1498.690032  	0.048223 
1500.618848  	0.046075 
1502.547664  	0.043372 
1504.476480  	0.040397 
1506.405296  	0.040563 
1508.334112  	0.042639 
1510.262928  	0.040403 
1512.191744  	0.038331 
1514.120560  	0.036888 
1516.049376  	0.036946 
1517.978192  	0.037073 
1519.907008  	0.037066 
1521.835824  	0.039601 
1523.764640  	0.041668 
1525.693456  	0.044094 
1527.622272  	0.046228 
1529.551088  	0.046683 
1531.479904  	0.046593 
1533.408720  	0.046560 
1535.337536  	0.045433 
1537.266352  	0.042373 
1539.195168  	0.039203 
1541.123984  	0.038551 
1543.052800  	0.039059 
1544.981616  	0.038662 
1546.910432  	0.036753 
1548.839248  	0.035953 
1550.768064  	0.036390 
1552.696880  	0.035481 
1554.625696  	0.036009 
1556.554512  	0.034874 
1558.483328  	0.035705 
1560.412144  	0.041509 
1562.340960  	0.042719 
1564.269776  	0.044226 
1566.198592  	0.047392 
1568.127408  	0.049718 
1570.056224  	0.054669 
1571.985040  	0.058390 
1573.913856  	0.059681 
1575.842672  	0.061089 
1577.771488  	0.063909 
1579.700304  	0.063992 
1581.629120  	0.063898 
1583.557936  	0.063947 
1585.486752  	0.065164 
1587.415568  	0.067181 
1589.344384  	0.070676 
1591.273200  	0.074716 
1593.202016  	0.079532 
1595.130832  	0.084231 
1597.059648  	0.088850 
1598.988464  	0.092318 
1600.917280  	0.095248 
1602.846096  	0.096942 
1604.774912  	0.097917 
1606.703728  	0.097669 
1608.632544  	0.097179 
1610.561360  	0.096222 
1612.490176  	0.095673 
1614.418992  	0.094731 
1616.347808  	0.095492 
1618.276624  	0.098360 
1620.205440  	0.101425 
1622.134256  	0.104596 
1624.063072  	0.110509 
1625.991888  	0.115750 
1627.920704  	0.122009 
1629.849520  	0.128926 
1631.778336  	0.135102 
1633.707152  	0.139772 
1635.635968  	0.146333 
1637.564784  	0.153105 
1639.493600  	0.157618 
1641.422416  	0.161111 
1643.351232  	0.163692 
1645.280048  	0.164884 
1647.208864  	0.166596 
1649.137680  	0.167077 
1651.066496  	0.166227 
1652.995312  	0.164329 
1654.924128  	0.165017 
1656.852944  	0.164131 
1658.781760  	0.162886 
1660.710576  	0.161361 
1662.639392  	0.159921 
1664.568208  	0.158599 
1666.497024  	0.157440 
1668.425840  	0.155816 
1670.354656  	0.154632 
1672.283472  	0.153570 
1674.212288  	0.152925 
1676.141104  	0.153098 
1678.069920  	0.153612 
1679.998736  	0.154290 
1681.927552  	0.154132 
1683.856368  	0.153896 
1685.785184  	0.154822 
1687.714000  	0.154641 
1689.642816  	0.153776 
1691.571632  	0.151795 
1693.500448  	0.149600 
1695.429264  	0.146778 
1697.358080  	0.143662 
1699.286896  	0.140329 
1701.215712  	0.136794 
1703.144528  	0.133269 
1705.073344  	0.128987 
1707.002160  	0.124215 
1708.930976  	0.119818 
1710.859792  	0.114784 
1712.788608  	0.109334 
1714.717424  	0.103538 
1716.646240  	0.097355 
1718.575056  	0.091093 
1720.503872  	0.084623 
1722.432688  	0.079081 
1724.361504  	0.072848 
1726.290320  	0.066884 
1728.219136  	0.061564 
1730.147952  	0.057023 
1732.076768  	0.051914 
1734.005584  	0.047763 
1735.934400  	0.042757 
1737.863216  	0.038442 
1739.792032  	0.034297 
1741.720848  	0.031605 
1743.649664  	0.029206 
1745.578480  	0.026288 
1747.507296  	0.023715 
1749.436112  	0.022653 
1751.364928  	0.021941 
1753.293744  	0.020121 
1755.222560  	0.018004 
1757.151376  	0.017697 
1759.080192  	0.016449 
1761.009008  	0.015912 
1762.937824  	0.015639 
1764.866640  	0.014828 
1766.795456  	0.014187 
1768.724272  	0.014155 
1770.653088  	0.012416 
1772.581904  	0.012847 
1774.510720  	0.013397 
1776.439536  	0.013252 
1778.368352  	0.012580 
1780.297168  	0.012695 
1782.225984  	0.012342 
1784.154800  	0.012191 
1786.083616  	0.012249 
1788.012432  	0.011566 
1789.941248  	0.011033 
1791.870064  	0.011690 
1793.798880  	0.011897 
1795.727696  	0.011803 
1797.656512  	0.011027 
1799.585328  	0.010779 
1801.514144  	0.011259 
1803.442960  	0.010871 
1805.371776  	0.010167 
1807.300592  	0.010018 
1809.229408  	0.009642 
1811.158224  	0.010040 
1813.087040  	0.009907 
1815.015856  	0.009309 
1816.944672  	0.009233 
1818.873488  	0.009606 
1820.802304  	0.009525 
1822.731120  	0.009429 
1824.659936  	0.009664 
1826.588752  	0.009876 
1828.517568  	0.009278 
1830.446384  	0.010142 
1832.375200  	0.010008 
1834.304016  	0.009485 
1836.232832  	0.009228 
1838.161648  	0.009554 
1840.090464  	0.009297 
1842.019280  	0.008785 
1843.948096  	0.009026 
1845.876912  	0.009981 
1847.805728  	0.009850 
1849.734544  	0.009755 
1851.663360  	0.009146 
1853.592176  	0.009124 
1855.520992  	0.008837 
1857.449808  	0.009224 
1859.378624  	0.009274 
1861.307440  	0.009278 
1863.236256  	0.008798 
1865.165072  	0.008803 
1867.093888  	0.008995 
1869.022704  	0.010047 
1870.951520  	0.009871 
1872.880336  	0.009306 
1874.809152  	0.008765 
1876.737968  	0.008722 
1878.666784  	0.008678 
1880.595600  	0.008891 
1882.524416  	0.008824 
1884.453232  	0.008790 
1886.382048  	0.008453 
1888.310864  	0.008688 
1890.239680  	0.009252 
1892.168496  	0.009009 
1894.097312  	0.008602 
1896.026128  	0.008981 
1897.954944  	0.008559 
1899.883760  	0.008465 
1901.812576  	0.008469 
1903.741392  	0.008631 
1905.670208  	0.008293 
1907.599024  	0.008356 
1909.527840  	0.008322 
1911.456656  	0.008495 
1913.385472  	0.008597 
1915.314288  	0.008907 
1917.243104  	0.008890 
1919.171920  	0.009083 
1921.100736  	0.008699 
1923.029552  	0.009217 
1924.958368  	0.008301 
1926.887184  	0.007998 
1928.816000  	0.007914 
1930.744816  	0.007699 
1932.673632  	0.007186 
1934.602448  	0.007854 
1936.531264  	0.008228 
1938.460080  	0.007735 
1940.388896  	0.007531 
1942.317712  	0.008334 
1944.246528  	0.008045 
1946.175344  	0.008384 
1948.104160  	0.007608 
1950.032976  	0.007342 
1951.961792  	0.007869 
1953.890608  	0.008665 
1955.819424  	0.007805 
1957.748240  	0.007674 
1959.677056  	0.007897 
1961.605872  	0.008209 
1963.534688  	0.007503 
1965.463504  	0.008424 
1967.392320  	0.008184 
1969.321136  	0.007156 
1971.249952  	0.007238 
1973.178768  	0.008842 
1975.107584  	0.007971 
1977.036400  	0.007472 
1978.965216  	0.009406 
1980.894032  	0.009640 
1982.822848  	0.007611 
1984.751664  	0.007677 
1986.680480  	0.008140 
1988.609296  	0.008928 
1990.538112  	0.008841 
1992.466928  	0.009718 
1994.395744  	0.009790 
1996.324560  	0.009312 
1998.253376  	0.008044 
2000.182192  	0.007974 
2002.111008  	0.008125 
2004.039824  	0.007985 
2005.968640  	0.007193 
2007.897456  	0.008943 
2009.826272  	0.008611 
2011.755088  	0.007333 
2013.683904  	0.007442 
2015.612720  	0.008794 
2017.541536  	0.008946 
2019.470352  	0.008911 
2021.399168  	0.007581 
2023.327984  	0.007393 
2025.256800  	0.007840 
2027.185616  	0.008570 
2029.114432  	0.007981 
2031.043248  	0.009511 
2032.972064  	0.009778 
2034.900880  	0.010662 
2036.829696  	0.010259 
2038.758512  	0.009564 
2040.687328  	0.009087 
2042.616144  	0.008870 
2044.544960  	0.008548 
2046.473776  	0.008818 
2048.402592  	0.008702 
2050.331408  	0.009623 
2052.260224  	0.008906 
2054.189040  	0.008771 
2056.117856  	0.008374 
2058.046672  	0.008182 
2059.975488  	0.007709 
2061.904304  	0.007648 
2063.833120  	0.008492 
2065.761936  	0.009275 
2067.690752  	0.008735 
2069.619568  	0.008536 
2071.548384  	0.007594 
2073.477200  	0.007592 
2075.406016  	0.008591 
2077.334832  	0.009085 
2079.263648  	0.008129 
2081.192464  	0.007856 
2083.121280  	0.008668 
2085.050096  	0.009089 
2086.978912  	0.008623 
2088.907728  	0.008586 
2090.836544  	0.008263 
2092.765360  	0.007627 
2094.694176  	0.007652 
2096.622992  	0.007983 
2098.551808  	0.008052 
2100.480624  	0.008207 
2102.409440  	0.007967 
2104.338256  	0.008494 
2106.267072  	0.008463 
2108.195888  	0.008473 
2110.124704  	0.008811 
2112.053520  	0.009269 
2113.982336  	0.008887 
2115.911152  	0.008921 
2117.839968  	0.008417 
2119.768784  	0.007987 
2121.697600  	0.007581 
2123.626416  	0.007147 
2125.555232  	0.007081 
2127.484048  	0.007188 
2129.412864  	0.006228 
2131.341680  	0.005427 
2133.270496  	0.006587 
2135.199312  	0.007790 
2137.128128  	0.007684 
2139.056944  	0.007355 
2140.985760  	0.006738 
2142.914576  	0.007270 
2144.843392  	0.007430 
2146.772208  	0.007802 
2148.701024  	0.007275 
2150.629840  	0.007043 
2152.558656  	0.005386 
2154.487472  	0.004659 
2156.416288  	0.004450 
2158.345104  	0.006855 
2160.273920  	0.010506 
2162.202736  	0.010989 
2164.131552  	0.010018 
2166.060368  	0.011412 
2167.989184  	0.010438 
2169.918000  	0.009639 
2171.846816  	0.009436 
2173.775632  	0.008932 
2175.704448  	0.008776 
2177.633264  	0.009525 
2179.562080  	0.009616 
2181.490896  	0.008956 
2183.419712  	0.008109 
2185.348528  	0.008804 
2187.277344  	0.009017 
2189.206160  	0.009231 
2191.134976  	0.009618 
2193.063792  	0.010785 
2194.992608  	0.011858 
2196.921424  	0.010868 
2198.850240  	0.010321 
2200.779056  	0.010062 
2202.707872  	0.009820 
2204.636688  	0.010494 
2206.565504  	0.010614 
2208.494320  	0.010968 
2210.423136  	0.009599 
2212.351952  	0.009264 
2214.280768  	0.009681 
2216.209584  	0.009518 
2218.138400  	0.009186 
2220.067216  	0.009442 
2221.996032  	0.009806 
2223.924848  	0.009232 
2225.853664  	0.009097 
2227.782480  	0.010161 
2229.711296  	0.010415 
2231.640112  	0.010222 
2233.568928  	0.009430 
2235.497744  	0.008951 
2237.426560  	0.009016 
2239.355376  	0.009474 
2241.284192  	0.009111 
2243.213008  	0.009205 
2245.141824  	0.009203 
2247.070640  	0.008770 
2248.999456  	0.008523 
2250.928272  	0.008757 
2252.857088  	0.008830 
2254.785904  	0.009022 
2256.714720  	0.009254 
2258.643536  	0.009707 
2260.572352  	0.009274 
2262.501168  	0.009306 
2264.429984  	0.009571 
2266.358800  	0.009701 
2268.287616  	0.009457 
2270.216432  	0.009601 
2272.145248  	0.009618 
2274.074064  	0.009601 
2276.002880  	0.009495 
2277.931696  	0.010179 
2279.860512  	0.010720 
2281.789328  	0.010675 
2283.718144  	0.010744 
2285.646960  	0.011126 
2287.575776  	0.011317 
2289.504592  	0.011109 
2291.433408  	0.010583 
2293.362224  	0.010492 
2295.291040  	0.010657 
2297.219856  	0.011072 
2299.148672  	0.011022 
2301.077488  	0.010983 
2303.006304  	0.011088 
2304.935120  	0.011027 
2306.863936  	0.010757 
2308.792752  	0.010578 
2310.721568  	0.010473 
2312.650384  	0.010166 
2314.579200  	0.009451 
2316.508016  	0.008950 
2318.436832  	0.008660 
2320.365648  	0.008445 
2322.294464  	0.007786 
2324.223280  	0.006454 
2326.152096  	0.004361 
2328.080912  	0.002920 
2330.009728  	0.002094 
2331.938544  	0.001557 
2333.867360  	0.000176 
2335.796176  	-0.000754 
2337.724992  	-0.001238 
2339.653808  	-0.001475 
2341.582624  	-0.001022 
2343.511440  	0.000467 
2345.440256  	0.003081 
2347.369072  	0.005794 
2349.297888  	0.005303 
2351.226704  	0.002403 
2353.155520  	-0.000196 
2355.084336  	-0.002246 
2357.013152  	-0.004062 
2358.941968  	-0.005281 
2360.870784  	-0.005568 
2362.799600  	-0.004849 
2364.728416  	-0.003653 
2366.657232  	-0.001818 
2368.586048  	0.000180 
2370.514864  	0.002685 
2372.443680  	0.004842 
2374.372496  	0.007067 
2376.301312  	0.008924 
2378.230128  	0.010264 
2380.158944  	0.010802 
2382.087760  	0.010917 
2384.016576  	0.010748 
2385.945392  	0.010579 
2387.874208  	0.010078 
2389.803024  	0.009713 
2391.731840  	0.009530 
2393.660656  	0.009588 
2395.589472  	0.009785 
2397.518288  	0.009994 
2399.447104  	0.010072 
2401.375920  	0.009822 
2403.304736  	0.009829 
2405.233552  	0.010187 
2407.162368  	0.010343 
2409.091184  	0.010255 
2411.020000  	0.010145 
2412.948816  	0.010316 
2414.877632  	0.010414 
2416.806448  	0.010456 
2418.735264  	0.010474 
2420.664080  	0.010484 
2422.592896  	0.010237 
2424.521712  	0.010117 
2426.450528  	0.010155 
2428.379344  	0.010227 
2430.308160  	0.010308 
2432.236976  	0.010369 
2434.165792  	0.010621 
2436.094608  	0.011132 
2438.023424  	0.011312 
2439.952240  	0.011263 
2441.881056  	0.011140 
2443.809872  	0.011035 
2445.738688  	0.011091 
2447.667504  	0.011301 
2449.596320  	0.011280 
2451.525136  	0.011249 
2453.453952  	0.011355 
2455.382768  	0.011709 
2457.311584  	0.011798 
2459.240400  	0.011630 
2461.169216  	0.011300 
2463.098032  	0.011317 
2465.026848  	0.011327 
2466.955664  	0.011129 
2468.884480  	0.011044 
2470.813296  	0.011400 
2472.742112  	0.011395 
2474.670928  	0.011330 
2476.599744  	0.011369 
2478.528560  	0.011339 
2480.457376  	0.011499 
2482.386192  	0.011543 
2484.315008  	0.011616 
2486.243824  	0.011761 
2488.172640  	0.011555 
2490.101456  	0.011640 
2492.030272  	0.012093 
2493.959088  	0.012121 
2495.887904  	0.011933 
2497.816720  	0.012185 
2499.745536  	0.012180 
2501.674352  	0.012070 
2503.603168  	0.012023 
2505.531984  	0.012106 
2507.460800  	0.012212 
2509.389616  	0.012226 
2511.318432  	0.012062 
2513.247248  	0.012150 
2515.176064  	0.012398 
2517.104880  	0.012507 
2519.033696  	0.012566 
2520.962512  	0.012668 
2522.891328  	0.012748 
2524.820144  	0.012726 
2526.748960  	0.012719 
2528.677776  	0.012813 
2530.606592  	0.012833 
2532.535408  	0.012939 
2534.464224  	0.013103 
2536.393040  	0.013134 
2538.321856  	0.013021 
2540.250672  	0.013042 
2542.179488  	0.013101 
2544.108304  	0.013317 
2546.037120  	0.013298 
2547.965936  	0.013389 
2549.894752  	0.013544 
2551.823568  	0.013682 
2553.752384  	0.013662 
2555.681200  	0.013775 
2557.610016  	0.013938 
2559.538832  	0.014161 
2561.467648  	0.014252 
2563.396464  	0.014412 
2565.325280  	0.014529 
2567.254096  	0.014427 
2569.182912  	0.014365 
2571.111728  	0.014446 
2573.040544  	0.014363 
2574.969360  	0.014206 
2576.898176  	0.014336 
2578.826992  	0.014818 
2580.755808  	0.014783 
2582.684624  	0.014676 
2584.613440  	0.014730 
2586.542256  	0.014991 
2588.471072  	0.015129 
2590.399888  	0.015063 
2592.328704  	0.015026 
2594.257520  	0.015221 
2596.186336  	0.015538 
2598.115152  	0.015694 
2600.043968  	0.015632 
2601.972784  	0.015628 
2603.901600  	0.015698 
2605.830416  	0.015683 
2607.759232  	0.015531 
2609.688048  	0.015765 
2611.616864  	0.016025 
2613.545680  	0.016094 
2615.474496  	0.016064 
2617.403312  	0.016053 
2619.332128  	0.016262 
2621.260944  	0.016417 
2623.189760  	0.016399 
2625.118576  	0.016503 
2627.047392  	0.016669 
2628.976208  	0.016980 
2630.905024  	0.017056 
2632.833840  	0.017242 
2634.762656  	0.017395 
2636.691472  	0.017305 
2638.620288  	0.017341 
2640.549104  	0.017487 
2642.477920  	0.017559 
2644.406736  	0.017516 
2646.335552  	0.017689 
2648.264368  	0.017969 
2650.193184  	0.018118 
2652.122000  	0.018219 
2654.050816  	0.018253 
2655.979632  	0.018178 
2657.908448  	0.018250 
2659.837264  	0.018321 
2661.766080  	0.018247 
2663.694896  	0.018223 
2665.623712  	0.018149 
2667.552528  	0.018157 
2669.481344  	0.018286 
2671.410160  	0.018457 
2673.338976  	0.018545 
2675.267792  	0.018693 
2677.196608  	0.018843 
2679.125424  	0.018919 
2681.054240  	0.018950 
2682.983056  	0.018989 
2684.911872  	0.019098 
2686.840688  	0.019243 
2688.769504  	0.019387 
2690.698320  	0.019514 
2692.627136  	0.019603 
2694.555952  	0.019633 
2696.484768  	0.019613 
2698.413584  	0.019667 
2700.342400  	0.019714 
2702.271216  	0.019893 
2704.200032  	0.020100 
2706.128848  	0.020126 
2708.057664  	0.020141 
2709.986480  	0.020260 
2711.915296  	0.020329 
2713.844112  	0.020375 
2715.772928  	0.020552 
2717.701744  	0.020710 
2719.630560  	0.020753 
2721.559376  	0.020830 
2723.488192  	0.020892 
2725.417008  	0.021086 
2727.345824  	0.021245 
2729.274640  	0.021263 
2731.203456  	0.021257 
2733.132272  	0.021262 
2735.061088  	0.021367 
2736.989904  	0.021542 
2738.918720  	0.021628 
2740.847536  	0.021611 
2742.776352  	0.021691 
2744.705168  	0.021819 
2746.633984  	0.021925 
2748.562800  	0.022027 
2750.491616  	0.022108 
2752.420432  	0.022120 
2754.349248  	0.022123 
2756.278064  	0.022164 
2758.206880  	0.022215 
2760.135696  	0.022415 
2762.064512  	0.022432 
2763.993328  	0.022358 
2765.922144  	0.022312 
2767.850960  	0.022319 
2769.779776  	0.022316 
2771.708592  	0.022408 
2773.637408  	0.022474 
2775.566224  	0.022590 
2777.495040  	0.022510 
2779.423856  	0.022474 
2781.352672  	0.022688 
2783.281488  	0.022854 
2785.210304  	0.022787 
2787.139120  	0.022852 
2789.067936  	0.022997 
2790.996752  	0.022989 
2792.925568  	0.023041 
2794.854384  	0.023178 
2796.783200  	0.023311 
2798.712016  	0.023283 
2800.640832  	0.023202 
2802.569648  	0.023314 
2804.498464  	0.023422 
2806.427280  	0.023411 
2808.356096  	0.023478 
2810.284912  	0.023708 
2812.213728  	0.023669 
2814.142544  	0.023617 
2816.071360  	0.023697 
2818.000176  	0.023556 
2819.928992  	0.023480 
2821.857808  	0.023581 
2823.786624  	0.023623 
2825.715440  	0.023547 
2827.644256  	0.023344 
2829.573072  	0.023334 
2831.501888  	0.023174 
2833.430704  	0.022984 
2835.359520  	0.022870 
2837.288336  	0.022657 
2839.217152  	0.022428 
2841.145968  	0.022207 
2843.074784  	0.022005 
2845.003600  	0.021935 
2846.932416  	0.022008 
2848.861232  	0.021943 
2850.790048  	0.021651 
2852.718864  	0.021274 
2854.647680  	0.020824 
2856.576496  	0.020409 
2858.505312  	0.019924 
2860.434128  	0.019444 
2862.362944  	0.018953 
2864.291760  	0.018332 
2866.220576  	0.017791 
2868.149392  	0.017666 
2870.078208  	0.017671 
2872.007024  	0.017773 
2873.935840  	0.017963 
2875.864656  	0.018087 
2877.793472  	0.018138 
2879.722288  	0.017973 
2881.651104  	0.017634 
2883.579920  	0.017516 
2885.508736  	0.017677 
2887.437552  	0.017825 
2889.366368  	0.017874 
2891.295184  	0.017771 
2893.224000  	0.017693 
2895.152816  	0.017793 
2897.081632  	0.017398 
2899.010448  	0.016287 
2900.939264  	0.015612 
2902.868080  	0.016533 
2904.796896  	0.017513 
2906.725712  	0.018004 
2908.654528  	0.018341 
2910.583344  	0.018738 
2912.512160  	0.019618 
2914.440976  	0.020706 
2916.369792  	0.021442 
2918.298608  	0.022027 
2920.227424  	0.022513 
2922.156240  	0.023038 
2924.085056  	0.023562 
2926.013872  	0.024141 
2927.942688  	0.024845 
2929.871504  	0.025558 
2931.800320  	0.026062 
2933.729136  	0.026364 
2935.657952  	0.026728 
2937.586768  	0.027247 
2939.515584  	0.027417 
2941.444400  	0.027339 
2943.373216  	0.027384 
2945.302032  	0.027556 
2947.230848  	0.027591 
2949.159664  	0.027363 
2951.088480  	0.026964 
2953.017296  	0.026598 
2954.946112  	0.026152 
2956.874928  	0.025474 
2958.803744  	0.024680 
2960.732560  	0.024180 
2962.661376  	0.023760 
2964.590192  	0.023010 
2966.519008  	0.022186 
2968.447824  	0.021349 
2970.376640  	0.020779 
2972.305456  	0.020346 
2974.234272  	0.020314 
2976.163088  	0.020349 
2978.091904  	0.020207 
2980.020720  	0.020065 
2981.949536  	0.020055 
2983.878352  	0.019672 
2985.807168  	0.018910 
2987.735984  	0.018531 
2989.664800  	0.019118 
2991.593616  	0.021227 
2993.522432  	0.022324 
2995.451248  	0.022515 
2997.380064  	0.023014 
2999.308880  	0.023903 
3001.237696  	0.024811 
3003.166512  	0.025668 
3005.095328  	0.026533 
3007.024144  	0.027481 
3008.952960  	0.028467 
3010.881776  	0.029514 
3012.810592  	0.030526 
3014.739408  	0.031261 
3016.668224  	0.032030 
3018.597040  	0.032791 
3020.525856  	0.033443 
3022.454672  	0.034142 
3024.383488  	0.034935 
3026.312304  	0.035606 
3028.241120  	0.036100 
3030.169936  	0.036472 
3032.098752  	0.037202 
3034.027568  	0.037577 
3035.956384  	0.037860 
3037.885200  	0.038358 
3039.814016  	0.038930 
3041.742832  	0.039485 
3043.671648  	0.039926 
3045.600464  	0.040234 
3047.529280  	0.040476 
3049.458096  	0.040746 
3051.386912  	0.040771 
3053.315728  	0.040982 
3055.244544  	0.041516 
3057.173360  	0.042043 
3059.102176  	0.042360 
3061.030992  	0.042616 
3062.959808  	0.042916 
3064.888624  	0.043292 
3066.817440  	0.043908 
3068.746256  	0.044292 
3070.675072  	0.044297 
3072.603888  	0.044569 
3074.532704  	0.045137 
3076.461520  	0.045616 
3078.390336  	0.045900 
3080.319152  	0.046249 
3082.247968  	0.046835 
3084.176784  	0.047268 
3086.105600  	0.047532 
3088.034416  	0.047896 
3089.963232  	0.048275 
3091.892048  	0.048582 
3093.820864  	0.048839 
3095.749680  	0.049222 
3097.678496  	0.049488 
3099.607312  	0.049850 
3101.536128  	0.050282 
3103.464944  	0.050635 
3105.393760  	0.050864 
3107.322576  	0.051173 
3109.251392  	0.051524 
3111.180208  	0.051861 
3113.109024  	0.052049 
3115.037840  	0.052131 
3116.966656  	0.052461 
3118.895472  	0.052781 
3120.824288  	0.052988 
3122.753104  	0.053392 
3124.681920  	0.053760 
3126.610736  	0.053821 
3128.539552  	0.054043 
3130.468368  	0.054357 
3132.397184  	0.054484 
3134.326000  	0.054554 
3136.254816  	0.054857 
3138.183632  	0.055164 
3140.112448  	0.055317 
3142.041264  	0.055605 
3143.970080  	0.055854 
3145.898896  	0.055889 
3147.827712  	0.056180 
3149.756528  	0.056627 
3151.685344  	0.057043 
3153.614160  	0.057402 
3155.542976  	0.057589 
3157.471792  	0.057745 
3159.400608  	0.058298 
3161.329424  	0.058736 
3163.258240  	0.058907 
3165.187056  	0.059080 
3167.115872  	0.059268 
3169.044688  	0.059487 
3170.973504  	0.059657 
3172.902320  	0.059849 
3174.831136  	0.059988 
3176.759952  	0.060211 
3178.688768  	0.060691 
3180.617584  	0.060875 
3182.546400  	0.060658 
3184.475216  	0.060818 
3186.404032  	0.060915 
3188.332848  	0.060885 
3190.261664  	0.061103 
3192.190480  	0.061185 
3194.119296  	0.061135 
3196.048112  	0.061100 
3197.976928  	0.061236 
3199.905744  	0.061444 
3201.834560  	0.061357 
3203.763376  	0.061332 
3205.692192  	0.061257 
3207.621008  	0.061047 
3209.549824  	0.060844 
3211.478640  	0.060741 
3213.407456  	0.060598 
3215.336272  	0.060684 
3217.265088  	0.060567 
3219.193904  	0.060392 
3221.122720  	0.060227 
3223.051536  	0.059885 
3224.980352  	0.059733 
3226.909168  	0.059515 
3228.837984  	0.059203 
3230.766800  	0.059097 
3232.695616  	0.059241 
3234.624432  	0.059438 
3236.553248  	0.059420 
3238.482064  	0.059200 
3240.410880  	0.058997 
3242.339696  	0.058978 
3244.268512  	0.058931 
3246.197328  	0.058823 
3248.126144  	0.058765 
3250.054960  	0.058747 
3251.983776  	0.058654 
3253.912592  	0.058795 
3255.841408  	0.059039 
3257.770224  	0.059147 
3259.699040  	0.059211 
3261.627856  	0.059462 
3263.556672  	0.059573 
3265.485488  	0.059519 
3267.414304  	0.059684 
3269.343120  	0.059715 
3271.271936  	0.059883 
3273.200752  	0.060183 
3275.129568  	0.060357 
3277.058384  	0.060452 
3278.987200  	0.060550 
3280.916016  	0.060633 
3282.844832  	0.060718 
3284.773648  	0.060813 
3286.702464  	0.060887 
3288.631280  	0.061004 
3290.560096  	0.061234 
3292.488912  	0.061597 
3294.417728  	0.061785 
3296.346544  	0.061931 
3298.275360  	0.062030 
3300.204176  	0.062266 
3302.132992  	0.062476 
3304.061808  	0.062649 
3305.990624  	0.062926 
3307.919440  	0.063074 
3309.848256  	0.063176 
3311.777072  	0.063377 
3313.705888  	0.063688 
3315.634704  	0.063988 
3317.563520  	0.064239 
3319.492336  	0.064446 
3321.421152  	0.064679 
3323.349968  	0.064668 
3325.278784  	0.064885 
3327.207600  	0.065053 
3329.136416  	0.065068 
3331.065232  	0.065018 
3332.994048  	0.065128 
3334.922864  	0.065226 
3336.851680  	0.065085 
3338.780496  	0.064899 
3340.709312  	0.064794 
3342.638128  	0.064778 
3344.566944  	0.064620 
3346.495760  	0.064521 
3348.424576  	0.064336 
3350.353392  	0.064274 
3352.282208  	0.064198 
3354.211024  	0.064045 
3356.139840  	0.063921 
3358.068656  	0.063435 
3359.997472  	0.063107 
3361.926288  	0.062976 
3363.855104  	0.062613 
3365.783920  	0.062324 
3367.712736  	0.062202 
3369.641552  	0.061821 
3371.570368  	0.061484 
3373.499184  	0.061187 
3375.428000  	0.060789 
3377.356816  	0.060599 
3379.285632  	0.060589 
3381.214448  	0.060455 
3383.143264  	0.060034 
3385.072080  	0.059806 
3387.000896  	0.059469 
3388.929712  	0.059223 
3390.858528  	0.058847 
3392.787344  	0.058504 
3394.716160  	0.058197 
3396.644976  	0.058102 
3398.573792  	0.057699 
3400.502608  	0.057054 
3402.431424  	0.056695 
3404.360240  	0.056426 
3406.289056  	0.056083 
3408.217872  	0.055650 
3410.146688  	0.055239 
3412.075504  	0.055274 
3414.004320  	0.055137 
3415.933136  	0.054651 
3417.861952  	0.054202 
3419.790768  	0.054102 
3421.719584  	0.054009 
3423.648400  	0.053475 
3425.577216  	0.053154 
3427.506032  	0.052844 
3429.434848  	0.052353 
3431.363664  	0.051997 
3433.292480  	0.051682 
3435.221296  	0.051435 
3437.150112  	0.051105 
3439.078928  	0.050801 
3441.007744  	0.050525 
3442.936560  	0.050342 
3444.865376  	0.049849 
3446.794192  	0.049423 
3448.723008  	0.049160 
3450.651824  	0.048338 
3452.580640  	0.047642 
3454.509456  	0.047339 
3456.438272  	0.047088 
3458.367088  	0.046825 
3460.295904  	0.046546 
3462.224720  	0.046117 
3464.153536  	0.045591 
3466.082352  	0.045387 
3468.011168  	0.045018 
3469.939984  	0.044329 
3471.868800  	0.043674 
3473.797616  	0.043317 
3475.726432  	0.042810 
3477.655248  	0.042196 
3479.584064  	0.041916 
3481.512880  	0.041819 
3483.441696  	0.041198 
3485.370512  	0.040324 
3487.299328  	0.040086 
3489.228144  	0.039759 
3491.156960  	0.038930 
3493.085776  	0.038390 
3495.014592  	0.038185 
3496.943408  	0.037873 
3498.872224  	0.037218 
3500.801040  	0.036970 
3502.729856  	0.036966 
3504.658672  	0.036460 
3506.587488  	0.035401 
3508.516304  	0.035276 
3510.445120  	0.035613 
3512.373936  	0.035025 
3514.302752  	0.034294 
3516.231568  	0.033813 
3518.160384  	0.033452 
3520.089200  	0.033065 
3522.018016  	0.032953 
3523.946832  	0.033292 
3525.875648  	0.032740 
3527.804464  	0.032089 
3529.733280  	0.031738 
3531.662096  	0.031253 
3533.590912  	0.030544 
3535.519728  	0.030428 
3537.448544  	0.030407 
3539.377360  	0.029698 
3541.306176  	0.029016 
3543.234992  	0.028852 
3545.163808  	0.029638 
3547.092624  	0.029713 
3549.021440  	0.028203 
3550.950256  	0.027265 
3552.879072  	0.027790 
3554.807888  	0.027485 
3556.736704  	0.026713 
3558.665520  	0.026377 
3560.594336  	0.026164 
3562.523152  	0.025453 
3564.451968  	0.025147 
3566.380784  	0.026674 
3568.309600  	0.027535 
3570.238416  	0.025395 
3572.167232  	0.023659 
3574.096048  	0.023229 
3576.024864  	0.022958 
3577.953680  	0.022508 
3579.882496  	0.022290 
3581.811312  	0.021834 
3583.740128  	0.020737 
3585.668944  	0.020304 
3587.597760  	0.022233 
3589.526576  	0.022034 
3591.455392  	0.019490 
3593.384208  	0.018904 
3595.313024  	0.019153 
3597.241840  	0.018462 
3599.170656  	0.017369 
3601.099472  	0.017150 
3603.028288  	0.016678 
3604.957104  	0.015492 
3606.885920  	0.015210 
3608.814736  	0.016224 
3610.743552  	0.015404 
3612.672368  	0.014694 
3614.601184  	0.014452 
3616.530000  	0.012549 
3618.458816  	0.012522 
3620.387632  	0.013699 
3622.316448  	0.012157 
3624.245264  	0.010258 
3626.174080  	0.008343 
3628.102896  	0.008733 
3630.031712  	0.012223 
3631.960528  	0.010098 
3633.889344  	0.008805 
3635.818160  	0.008052 
3637.746976  	0.007100 
3639.675792  	0.006778 
3641.604608  	0.006530 
3643.533424  	0.005347 
3645.462240  	0.002929 
3647.391056  	0.002589 
3649.319872  	0.004140 
3651.248688  	0.005930 
3653.177504  	0.003381 
3655.106320  	0.001194 
3657.035136  	0.002367 
3658.963952  	0.001621 
3660.892768  	0.000360 
3662.821584  	-0.000277 
3664.750400  	-0.000789 
3666.679216  	-0.002249 
3668.608032  	-0.003180 
3670.536848  	-0.000701 
3672.465664  	-0.001818 
3674.394480  	-0.004262 
3676.323296  	0.000415 
3678.252112  	0.000717 
3680.180928  	-0.000008 
3682.109744  	-0.001002 
3684.038560  	-0.001930 
3685.967376  	-0.003469 
3687.896192  	-0.003974 
3689.825008  	-0.001567 
3691.753824  	-0.000422 
3693.682640  	-0.000788 
3695.611456  	-0.001252 
3697.540272  	-0.000956 
3699.469088  	-0.001516 
3701.397904  	-0.000240 
3703.326720  	0.001215 
3705.255536  	0.000124 
3707.184352  	-0.001467 
3709.113168  	-0.002122 
3711.041984  	-0.000115 
3712.970800  	0.002791 
3714.899616  	0.002296 
3716.828432  	0.000819 
3718.757248  	0.000217 
3720.686064  	0.000018 
3722.614880  	0.001090 
3724.543696  	0.001687 
3726.472512  	0.002478 
3728.401328  	0.001334 
3730.330144  	-0.001707 
3732.258960  	-0.001964 
3734.187776  	0.000285 
3736.116592  	0.003975 
3738.045408  	0.003296 
3739.974224  	0.001041 
3741.903040  	-0.001293 
3743.831856  	-0.000358 
3745.760672  	0.003867 
3747.689488  	-0.000120 
3749.618304  	-0.001096 
3751.547120  	0.001930 
3753.475936  	0.003725 
3755.404752  	0.001593 
3757.333568  	0.000660 
3759.262384  	0.001506 
3761.191200  	0.002598 
3763.120016  	0.001237 
3765.048832  	0.001138 
3766.977648  	0.001319 
3768.906464  	0.000956 
3770.835280  	0.002710 
3772.764096  	0.002472 
3774.692912  	0.001423 
3776.621728  	0.000301 
3778.550544  	0.000285 
3780.479360  	0.001967 
3782.408176  	0.001376 
3784.336992  	0.001027 
3786.265808  	0.001415 
3788.194624  	0.001310 
3790.123440  	0.001202 
3792.052256  	0.000952 
3793.981072  	-0.000038 
3795.909888  	0.000219 
3797.838704  	0.000754 
3799.767520  	-0.001512 
3801.696336  	0.000651 
3803.625152  	0.001869 
3805.553968  	-0.000460 
3807.482784  	0.001711 
3809.411600  	0.002183 
3811.340416  	0.001125 
3813.269232  	-0.000523 
3815.198048  	-0.001113 
3817.126864  	0.001034 
3819.055680  	-0.001000 
3820.984496  	0.000883 
3822.913312  	0.003655 
3824.842128  	0.001294 
3826.770944  	0.001095 
3828.699760  	0.000682 
3830.628576  	-0.000181 
3832.557392  	0.000250 
3834.486208  	-0.000461 
3836.415024  	-0.001013 
3838.343840  	0.000796 
3840.272656  	0.002014 
3842.201472  	0.001680 
3844.130288  	0.001946 
3846.059104  	0.001601 
3847.987920  	0.000213 
3849.916736  	-0.001577 
3851.845552  	-0.003084 
3853.774368  	0.002751 
3855.703184  	0.004725 
3857.632000  	0.002340 
3859.560816  	0.000604 
3861.489632  	0.000051 
3863.418448  	0.000606 
3865.347264  	0.002183 
3867.276080  	0.000572 
3869.204896  	0.000520 
3871.133712  	0.003499 
3873.062528  	0.002011 
3874.991344  	0.002802 
3876.920160  	0.001254 
3878.848976  	0.000085 
3880.777792  	0.002350 
3882.706608  	0.002051 
3884.635424  	0.001015 
3886.564240  	0.003256 
3888.493056  	0.001377 
3890.421872  	0.000849 
3892.350688  	0.003007 
3894.279504  	0.002313 
3896.208320  	0.000656 
3898.137136  	0.000410 
3900.065952  	0.001745 
3901.994768  	0.002338 
3903.923584  	0.003404 
3905.852400  	0.003849 
3907.781216  	0.002342 
3909.710032  	0.001311 
3911.638848  	0.001261 
3913.567664  	0.001015 
3915.496480  	0.001167 
3917.425296  	0.002718 
3919.354112  	0.002849 
3921.282928  	0.002246 
3923.211744  	0.001830 
3925.140560  	0.002658 
3927.069376  	0.002058 
3928.998192  	0.001298 
3930.927008  	0.002117 
3932.855824  	0.003244 
3934.784640  	0.002436 
3936.713456  	0.001595 
3938.642272  	0.001593 
3940.571088  	0.001333 
3942.499904  	0.002476 
3944.428720  	0.002959 
3946.357536  	0.001930 
3948.286352  	0.002259 
3950.215168  	0.002271 
3952.143984  	0.001629 
3954.072800  	0.001383 
3956.001616  	0.001493 
3957.930432  	0.001656 
3959.859248  	0.001863 
3961.788064  	0.002054 
3963.716880  	0.001878 
3965.645696  	0.001364 
3967.574512  	0.001450 
3969.503328  	0.001652 
3971.432144  	0.001543 
3973.360960  	0.001509 
3975.289776  	0.001954 
3977.218592  	0.001957 
3979.147408  	0.001682 
3981.076224  	0.001504 
3983.005040  	0.001418 
3984.933856  	0.001434 
3986.862672  	0.001467 
3988.791488  	0.001514 
3990.720304  	0.001704 
3992.649120  	0.001707 
3994.577936  	0.001623 
3996.506752  	0.001456 
3998.435568  	0.001526 
4000.364384  	0.001637 