##TITLE=No Description
##DATA TYPE=INFRARED SPECTRUM
##XUNITS=1/CM
##YUNITS=Abs
399.264912  	0.605472 
401.193728  	0.583319 
403.122544  	0.576609 
405.051360  	0.594819 
406.980176  	0.597927 
408.908992  	0.577961 
410.837808  	0.577316 
412.766624  	0.583590 
414.695440  	0.585074 
416.624256  	0.568147 
418.553072  	0.563075 
420.481888  	0.562264 
422.410704  	0.556016 
424.339520  	0.550981 
426.268336  	0.556194 
428.197152  	0.548932 
430.125968  	0.552582 
432.054784  	0.547998 
433.983600  	0.540460 
435.912416  	0.535341 
437.841232  	0.533105 
439.770048  	0.527543 
441.698864  	0.529413 
443.627680  	0.524910 
445.556496  	0.521769 
447.485312  	0.518874 
449.414128  	0.516447 
451.342944  	0.518475 
453.271760  	0.520489 
455.200576  	0.511220 
457.129392  	0.507782 
459.058208  	0.511175 
460.987024  	0.518721 
462.915840  	0.515749 
464.844656  	0.514679 
466.773472  	0.514006 
468.702288  	0.514016 
470.631104  	0.508801 
472.559920  	0.509712 
474.488736  	0.506531 
476.417552  	0.504746 
478.346368  	0.502511 
480.275184  	0.504621 
482.204000  	0.505181 
484.132816  	0.507521 
486.061632  	0.501502 
487.990448  	0.498142 
489.919264  	0.501032 
491.848080  	0.502142 
493.776896  	0.495250 
495.705712  	0.497032 
497.634528  	0.499409 
499.563344  	0.498521 
501.492160  	0.491674 
503.420976  	0.491738 
505.349792  	0.490846 
507.278608  	0.492942 
509.207424  	0.493433 
511.136240  	0.493928 
513.065056  	0.492818 
514.993872  	0.495215 
516.922688  	0.493937 
518.851504  	0.492805 
520.780320  	0.493590 
522.709136  	0.495243 
524.637952  	0.491411 
526.566768  	0.487627 
528.495584  	0.485235 
530.424400  	0.484476 
532.353216  	0.481594 
534.282032  	0.479464 
536.210848  	0.473636 
538.139664  	0.468608 
540.068480  	0.465479 
541.997296  	0.463677 
543.926112  	0.458942 
545.854928  	0.457650 
547.783744  	0.454450 
549.712560  	0.449663 
551.641376  	0.444237 
553.570192  	0.442258 
555.499008  	0.439732 
557.427824  	0.436742 
559.356640  	0.432111 
561.285456  	0.429290 
563.214272  	0.426796 
565.143088  	0.424979 
567.071904  	0.420552 
569.000720  	0.417298 
570.929536  	0.414523 
572.858352  	0.411417 
574.787168  	0.408172 
576.715984  	0.404908 
578.644800  	0.401122 
580.573616  	0.398606 
582.502432  	0.395558 
584.431248  	0.392800 
586.360064  	0.389543 
588.288880  	0.387722 
590.217696  	0.385884 
592.146512  	0.384614 
594.075328  	0.382171 
596.004144  	0.379398 
597.932960  	0.377375 
599.861776  	0.376837 
601.790592  	0.375436 
603.719408  	0.373929 
605.648224  	0.371747 
607.577040  	0.371219 
609.505856  	0.370431 
611.434672  	0.368728 
613.363488  	0.366520 
615.292304  	0.364583 
617.221120  	0.362361 
619.149936  	0.361635 
621.078752  	0.359282 
623.007568  	0.356687 
624.936384  	0.355160 
626.865200  	0.354644 
628.794016  	0.353116 
630.722832  	0.351284 
632.651648  	0.349810 
634.580464  	0.348932 
636.509280  	0.348453 
638.438096  	0.347707 
640.366912  	0.346587 
642.295728  	0.345165 
644.224544  	0.342183 
646.153360  	0.339400 
648.082176  	0.336646 
650.010992  	0.334135 
651.939808  	0.330423 
653.868624  	0.326600 
655.797440  	0.322721 
657.726256  	0.319540 
659.655072  	0.316106 
661.583888  	0.312750 
663.512704  	0.309967 
665.441520  	0.307582 
667.370336  	0.302601 
669.299152  	0.298008 
671.227968  	0.297105 
673.156784  	0.294970 
675.085600  	0.292255 
677.014416  	0.289988 
678.943232  	0.288245 
680.872048  	0.287001 
682.800864  	0.285069 
684.729680  	0.283360 
686.658496  	0.281434 
688.587312  	0.280096 
690.516128  	0.278522 
692.444944  	0.276905 
694.373760  	0.275324 
696.302576  	0.274021 
698.231392  	0.271623 
700.160208  	0.268582 
702.089024  	0.266073 
704.017840  	0.264623 
705.946656  	0.262167 
707.875472  	0.259308 
709.804288  	0.257182 
711.733104  	0.255822 
713.661920  	0.253807 
715.590736  	0.252363 
717.519552  	0.251828 
719.448368  	0.252111 
721.377184  	0.252427 
723.306000  	0.252484 
725.234816  	0.251639 
727.163632  	0.250082 
729.092448  	0.247751 
731.021264  	0.245703 
732.950080  	0.243267 
734.878896  	0.240563 
736.807712  	0.238009 
738.736528  	0.236026 
740.665344  	0.234202 
742.594160  	0.232825 
744.522976  	0.231296 
746.451792  	0.229935 
748.380608  	0.229056 
750.309424  	0.227950 
752.238240  	0.226654 
754.167056  	0.226124 
756.095872  	0.225281 
758.024688  	0.223696 
759.953504  	0.222372 
761.882320  	0.222287 
763.811136  	0.222151 
765.739952  	0.221127 
767.668768  	0.219537 
769.597584  	0.217777 
771.526400  	0.217052 
773.455216  	0.217951 
775.384032  	0.219360 
777.312848  	0.221542 
779.241664  	0.224019 
781.170480  	0.224439 
783.099296  	0.221868 
785.028112  	0.217626 
786.956928  	0.212690 
788.885744  	0.208153 
790.814560  	0.204611 
792.743376  	0.202159 
794.672192  	0.200311 
796.601008  	0.199294 
798.529824  	0.197374 
800.458640  	0.194206 
802.387456  	0.191040 
804.316272  	0.189539 
806.245088  	0.188651 
808.173904  	0.187846 
810.102720  	0.187247 
812.031536  	0.186599 
813.960352  	0.185845 
815.889168  	0.185420 
817.817984  	0.185112 
819.746800  	0.184654 
821.675616  	0.183940 
823.604432  	0.183276 
825.533248  	0.182460 
827.462064  	0.181313 
829.390880  	0.179834 
831.319696  	0.178339 
833.248512  	0.176912 
835.177328  	0.175163 
837.106144  	0.172905 
839.034960  	0.170097 
840.963776  	0.167296 
842.892592  	0.164835 
844.821408  	0.162257 
846.750224  	0.159681 
848.679040  	0.157462 
850.607856  	0.155459 
852.536672  	0.153579 
854.465488  	0.151592 
856.394304  	0.149691 
858.323120  	0.147859 
860.251936  	0.146006 
862.180752  	0.143737 
864.109568  	0.141593 
866.038384  	0.139885 
867.967200  	0.138245 
869.896016  	0.136753 
871.824832  	0.135557 
873.753648  	0.134766 
875.682464  	0.134562 
877.611280  	0.134116 
879.540096  	0.133756 
881.468912  	0.134765 
883.397728  	0.135012 
885.326544  	0.135142 
887.255360  	0.134778 
889.184176  	0.133583 
891.112992  	0.131646 
893.041808  	0.130129 
894.970624  	0.128504 
896.899440  	0.126179 
898.828256  	0.123331 
900.757072  	0.120670 
902.685888  	0.118565 
904.614704  	0.117236 
906.543520  	0.116943 
908.472336  	0.117948 
910.401152  	0.119793 
912.329968  	0.122244 
914.258784  	0.124718 
916.187600  	0.126690 
918.116416  	0.128062 
920.045232  	0.128761 
921.974048  	0.128531 
923.902864  	0.127896 
925.831680  	0.126955 
927.760496  	0.125983 
929.689312  	0.125164 
931.618128  	0.124879 
933.546944  	0.124655 
935.475760  	0.124364 
937.404576  	0.124245 
939.333392  	0.124460 
941.262208  	0.125176 
943.191024  	0.126810 
945.119840  	0.129436 
947.048656  	0.132579 
948.977472  	0.136862 
950.906288  	0.142117 
952.835104  	0.147707 
954.763920  	0.153120 
956.692736  	0.158106 
958.621552  	0.162495 
960.550368  	0.165440 
962.479184  	0.166649 
964.408000  	0.165567 
966.336816  	0.162597 
968.265632  	0.157445 
970.194448  	0.150699 
972.123264  	0.142892 
974.052080  	0.134551 
975.980896  	0.126211 
977.909712  	0.118525 
979.838528  	0.112034 
981.767344  	0.106567 
983.696160  	0.102493 
985.624976  	0.100103 
987.553792  	0.099542 
989.482608  	0.100507 
991.411424  	0.102835 
993.340240  	0.106438 
995.269056  	0.111249 
997.197872  	0.116244 
999.126688  	0.120930 
1001.055504  	0.125730 
1002.984320  	0.130413 
1004.913136  	0.134781 
1006.841952  	0.138526 
1008.770768  	0.141768 
1010.699584  	0.143953 
1012.628400  	0.144963 
1014.557216  	0.145233 
1016.486032  	0.145410 
1018.414848  	0.145347 
1020.343664  	0.145345 
1022.272480  	0.145133 
1024.201296  	0.144155 
1026.130112  	0.140896 
1028.058928  	0.139636 
1029.987744  	0.142393 
1031.916560  	0.143438 
1033.845376  	0.143316 
1035.774192  	0.142365 
1037.703008  	0.142282 
1039.631824  	0.145414 
1041.560640  	0.149360 
1043.489456  	0.154591 
1045.418272  	0.162142 
1047.347088  	0.171889 
1049.275904  	0.182021 
1051.204720  	0.192056 
1053.133536  	0.201040 
1055.062352  	0.208338 
1056.991168  	0.212560 
1058.919984  	0.217015 
1060.848800  	0.220530 
1062.777616  	0.220010 
1064.706432  	0.214699 
1066.635248  	0.210364 
1068.564064  	0.210694 
1070.492880  	0.208518 
1072.421696  	0.202818 
1074.350512  	0.197815 
1076.279328  	0.194584 
1078.208144  	0.193105 
1080.136960  	0.193247 
1082.065776  	0.193787 
1083.994592  	0.194616 
1085.923408  	0.195430 
1087.852224  	0.195044 
1089.781040  	0.194406 
1091.709856  	0.193106 
1093.638672  	0.189657 
1095.567488  	0.183781 
1097.496304  	0.176893 
1099.425120  	0.169159 
1101.353936  	0.161395 
1103.282752  	0.153444 
1105.211568  	0.145527 
1107.140384  	0.137693 
1109.069200  	0.129987 
1110.998016  	0.123048 
1112.926832  	0.116790 
1114.855648  	0.110319 
1116.784464  	0.103771 
1118.713280  	0.098149 
1120.642096  	0.092857 
1122.570912  	0.087726 
1124.499728  	0.082909 
1126.428544  	0.078304 
1128.357360  	0.073988 
1130.286176  	0.070032 
1132.214992  	0.066830 
1134.143808  	0.064176 
1136.072624  	0.061687 
1138.001440  	0.059252 
1139.930256  	0.056902 
1141.859072  	0.054747 
1143.787888  	0.052429 
1145.716704  	0.050547 
1147.645520  	0.049050 
1149.574336  	0.047883 
1151.503152  	0.047001 
1153.431968  	0.046593 
1155.360784  	0.046470 
1157.289600  	0.046842 
1159.218416  	0.047504 
1161.147232  	0.048545 
1163.076048  	0.049460 
1165.004864  	0.050723 
1166.933680  	0.052147 
1168.862496  	0.053867 
1170.791312  	0.055773 
1172.720128  	0.057699 
1174.648944  	0.059419 
1176.577760  	0.061310 
1178.506576  	0.063174 
1180.435392  	0.065004 
1182.364208  	0.066832 
1184.293024  	0.068946 
1186.221840  	0.071208 
1188.150656  	0.073639 
1190.079472  	0.076334 
1192.008288  	0.079577 
1193.937104  	0.083397 
1195.865920  	0.087957 
1197.794736  	0.092678 
1199.723552  	0.097945 
1201.652368  	0.103460 
1203.581184  	0.108888 
1205.510000  	0.114226 
1207.438816  	0.119802 
1209.367632  	0.125081 
1211.296448  	0.130058 
1213.225264  	0.134495 
1215.154080  	0.138174 
1217.082896  	0.141238 
1219.011712  	0.143684 
1220.940528  	0.145789 
1222.869344  	0.147282 
1224.798160  	0.148339 
1226.726976  	0.148994 
1228.655792  	0.149428 
1230.584608  	0.149607 
1232.513424  	0.149472 
1234.442240  	0.148636 
1236.371056  	0.147178 
1238.299872  	0.144717 
1240.228688  	0.139928 
1242.157504  	0.134947 
1244.086320  	0.131213 
1246.015136  	0.125772 
1247.943952  	0.119113 
1249.872768  	0.112807 
1251.801584  	0.107726 
1253.730400  	0.102550 
1255.659216  	0.097390 
1257.588032  	0.092521 
1259.516848  	0.087928 
1261.445664  	0.083698 
1263.374480  	0.079961 
1265.303296  	0.076734 
1267.232112  	0.074189 
1269.160928  	0.072308 
1271.089744  	0.071016 
1273.018560  	0.070422 
1274.947376  	0.070326 
1276.876192  	0.070200 
1278.805008  	0.069728 
1280.733824  	0.068568 
1282.662640  	0.066442 
1284.591456  	0.063560 
1286.520272  	0.060642 
1288.449088  	0.058235 
1290.377904  	0.056261 
1292.306720  	0.054755 
1294.235536  	0.053066 
1296.164352  	0.050758 
1298.093168  	0.047848 
1300.021984  	0.044994 
1301.950800  	0.042320 
1303.879616  	0.039935 
1305.808432  	0.037981 
1307.737248  	0.036510 
1309.666064  	0.035144 
1311.594880  	0.034425 
1313.523696  	0.033942 
1315.452512  	0.033580 
1317.381328  	0.033785 
1319.310144  	0.034300 
1321.238960  	0.034761 
1323.167776  	0.035327 
1325.096592  	0.035684 
1327.025408  	0.035797 
1328.954224  	0.035540 
1330.883040  	0.034971 
1332.811856  	0.034137 
1334.740672  	0.033547 
1336.669488  	0.033118 
1338.598304  	0.033008 
1340.527120  	0.032287 
1342.455936  	0.031131 
1344.384752  	0.030783 
1346.313568  	0.031162 
1348.242384  	0.031917 
1350.171200  	0.033076 
1352.100016  	0.034415 
1354.028832  	0.035843 
1355.957648  	0.037339 
1357.886464  	0.038819 
1359.815280  	0.040288 
1361.744096  	0.041832 
1363.672912  	0.042685 
1365.601728  	0.042578 
1367.530544  	0.042594 
1369.459360  	0.042324 
1371.388176  	0.041248 
1373.316992  	0.039756 
1375.245808  	0.037573 
1377.174624  	0.035482 
1379.103440  	0.033331 
1381.032256  	0.031349 
1382.961072  	0.030026 
1384.889888  	0.029619 
1386.818704  	0.029738 
1388.747520  	0.029198 
1390.676336  	0.027202 
1392.605152  	0.023617 
1394.533968  	0.022344 
1396.462784  	0.025766 
1398.391600  	0.027038 
1400.320416  	0.026704 
1402.249232  	0.026194 
1404.178048  	0.026548 
1406.106864  	0.027291 
1408.035680  	0.028718 
1409.964496  	0.030784 
1411.893312  	0.033427 
1413.822128  	0.035880 
1415.750944  	0.038610 
1417.679760  	0.040469 
1419.608576  	0.041059 
1421.537392  	0.041175 
1423.466208  	0.041187 
1425.395024  	0.040307 
1427.323840  	0.039041 
1429.252656  	0.037716 
1431.181472  	0.036864 
1433.110288  	0.036606 
1435.039104  	0.036626 
1436.967920  	0.036783 
1438.896736  	0.037223 
1440.825552  	0.037586 
1442.754368  	0.038069 
1444.683184  	0.038111 
1446.612000  	0.037939 
1448.540816  	0.037550 
1450.469632  	0.037598 
1452.398448  	0.037837 
1454.327264  	0.038030 
1456.256080  	0.038120 
1458.184896  	0.038785 
1460.113712  	0.039519 
1462.042528  	0.039906 
1463.971344  	0.039931 
1465.900160  	0.041463 
1467.828976  	0.043376 
1469.757792  	0.045164 
1471.686608  	0.047405 
1473.615424  	0.051706 
1475.544240  	0.054934 
1477.473056  	0.057387 
1479.401872  	0.058665 
1481.330688  	0.059526 
1483.259504  	0.059838 
1485.188320  	0.059518 
1487.117136  	0.058158 
1489.045952  	0.056777 
1490.974768  	0.054382 
1492.903584  	0.051730 
1494.832400  	0.048870 
1496.761216  	0.045538 
1498.690032  	0.042703 
1500.618848  	0.041050 
1502.547664  	0.039125 
1504.476480  	0.036364 
1506.405296  	0.034190 
1508.334112  	0.035329 
1510.262928  	0.034806 
1512.191744  	0.033491 
1514.120560  	0.032517 
1516.049376  	0.032219 
1517.978192  	0.032169 
1519.907008  	0.032518 
1521.835824  	0.033840 
1523.764640  	0.036364 
1525.693456  	0.038731 
1527.622272  	0.040669 
1529.551088  	0.041748 
1531.479904  	0.042015 
1533.408720  	0.041216 
1535.337536  	0.040675 
1537.266352  	0.038554 
1539.195168  	0.034063 
1541.123984  	0.031985 
1543.052800  	0.033337 
1544.981616  	0.033404 
1546.910432  	0.032603 
1548.839248  	0.032179 
1550.768064  	0.032264 
1552.696880  	0.031631 
1554.625696  	0.031690 
1556.554512  	0.030788 
1558.483328  	0.029719 
1560.412144  	0.034656 
1562.340960  	0.037896 
1564.269776  	0.039761 
1566.198592  	0.042899 
1568.127408  	0.045161 
1570.056224  	0.049026 
1571.985040  	0.053181 
1573.913856  	0.055090 
1575.842672  	0.055671 
1577.771488  	0.057977 
1579.700304  	0.058772 
1581.629120  	0.058929 
1583.557936  	0.059043 
1585.486752  	0.060017 
1587.415568  	0.061957 
1589.344384  	0.065247 
1591.273200  	0.069005 
1593.202016  	0.073524 
1595.130832  	0.077997 
1597.059648  	0.082472 
1598.988464  	0.085974 
1600.917280  	0.088874 
1602.846096  	0.090534 
1604.774912  	0.091484 
1606.703728  	0.091288 
1608.632544  	0.090870 
1610.561360  	0.090083 
1612.490176  	0.089711 
1614.418992  	0.088750 
1616.347808  	0.088530 
1618.276624  	0.091340 
1620.205440  	0.094863 
1622.134256  	0.097447 
1624.063072  	0.102715 
1625.991888  	0.108080 
1627.920704  	0.113924 
1629.849520  	0.120610 
1631.778336  	0.126600 
1633.707152  	0.130461 
1635.635968  	0.135777 
1637.564784  	0.143165 
1639.493600  	0.148014 
1641.422416  	0.151505 
1643.351232  	0.153976 
1645.280048  	0.154322 
1647.208864  	0.155369 
1649.137680  	0.156938 
1651.066496  	0.156130 
1652.995312  	0.152918 
1654.924128  	0.155068 
1656.852944  	0.155090 
1658.781760  	0.154024 
1660.710576  	0.152347 
1662.639392  	0.150572 
1664.568208  	0.149611 
1666.497024  	0.148541 
1668.425840  	0.146274 
1670.354656  	0.144734 
1672.283472  	0.144337 
1674.212288  	0.143415 
1676.141104  	0.143285 
1678.069920  	0.144274 
1679.998736  	0.144632 
1681.927552  	0.144100 
1683.856368  	0.142665 
1685.785184  	0.144559 
1687.714000  	0.145037 
1689.642816  	0.144155 
1691.571632  	0.142561 
1693.500448  	0.140576 
1695.429264  	0.136925 
1697.358080  	0.134142 
1699.286896  	0.130829 
1701.215712  	0.127308 
1703.144528  	0.125136 
1705.073344  	0.120757 
1707.002160  	0.116221 
1708.930976  	0.112532 
1710.859792  	0.107963 
1712.788608  	0.102810 
1714.717424  	0.097014 
1716.646240  	0.090313 
1718.575056  	0.083796 
1720.503872  	0.078867 
1722.432688  	0.073836 
1724.361504  	0.067712 
1726.290320  	0.062242 
1728.219136  	0.057142 
1730.147952  	0.052409 
1732.076768  	0.047599 
1734.005584  	0.042238 
1735.934400  	0.037745 
1737.863216  	0.034743 
1739.792032  	0.030377 
1741.720848  	0.027700 
1743.649664  	0.025376 
1745.578480  	0.022848 
1747.507296  	0.020290 
1749.436112  	0.018796 
1751.364928  	0.017754 
1753.293744  	0.016735 
1755.222560  	0.015364 
1757.151376  	0.014587 
1759.080192  	0.013516 
1761.009008  	0.012780 
1762.937824  	0.012165 
1764.866640  	0.011918 
1766.795456  	0.011432 
1768.724272  	0.011195 
1770.653088  	0.009535 
1772.581904  	0.008986 
1774.510720  	0.009783 
1776.439536  	0.010085 
1778.368352  	0.009771 
1780.297168  	0.009715 
1782.225984  	0.009584 
1784.154800  	0.009671 
1786.083616  	0.009463 
1788.012432  	0.009194 
1789.941248  	0.008760 
1791.870064  	0.008537 
1793.798880  	0.008399 
1795.727696  	0.008866 
1797.656512  	0.008386 
1799.585328  	0.008070 
1801.514144  	0.008161 
1803.442960  	0.007864 
1805.371776  	0.007462 
1807.300592  	0.007559 
1809.229408  	0.007206 
1811.158224  	0.007313 
1813.087040  	0.007221 
1815.015856  	0.006878 
1816.944672  	0.006708 
1818.873488  	0.007104 
1820.802304  	0.007205 
1822.731120  	0.007299 
1824.659936  	0.007120 
1826.588752  	0.007054 
1828.517568  	0.006409 
1830.446384  	0.006982 
1832.375200  	0.007343 
1834.304016  	0.007075 
1836.232832  	0.006733 
1838.161648  	0.007091 
1840.090464  	0.006916 
1842.019280  	0.006751 
1843.948096  	0.006072 
1845.876912  	0.006680 
1847.805728  	0.007148 
1849.734544  	0.007230 
1851.663360  	0.006785 
1853.592176  	0.006803 
1855.520992  	0.006601 
1857.449808  	0.006971 
1859.378624  	0.007059 
1861.307440  	0.006840 
1863.236256  	0.006386 
1865.165072  	0.006328 
1867.093888  	0.006242 
1869.022704  	0.006657 
1870.951520  	0.006585 
1872.880336  	0.006688 
1874.809152  	0.006319 
1876.737968  	0.006270 
1878.666784  	0.006059 
1880.595600  	0.006253 
1882.524416  	0.006313 
1884.453232  	0.006364 
1886.382048  	0.005983 
1888.310864  	0.006053 
1890.239680  	0.006372 
1892.168496  	0.006501 
1894.097312  	0.006059 
1896.026128  	0.006211 
1897.954944  	0.006118 
1899.883760  	0.005987 
1901.812576  	0.005545 
1903.741392  	0.005694 
1905.670208  	0.005536 
1907.599024  	0.005514 
1909.527840  	0.005492 
1911.456656  	0.005919 
1913.385472  	0.005998 
1915.314288  	0.006311 
1917.243104  	0.006166 
1919.171920  	0.005893 
1921.100736  	0.005706 
1923.029552  	0.006237 
1924.958368  	0.005364 
1926.887184  	0.005584 
1928.816000  	0.005445 
1930.744816  	0.005125 
1932.673632  	0.004696 
1934.602448  	0.005063 
1936.531264  	0.005521 
1938.460080  	0.005552 
1940.388896  	0.004758 
1942.317712  	0.004753 
1944.246528  	0.004864 
1946.175344  	0.005646 
1948.104160  	0.005199 
1950.032976  	0.004882 
1951.961792  	0.005089 
1953.890608  	0.005142 
1955.819424  	0.004335 
1957.748240  	0.004767 
1959.677056  	0.005136 
1961.605872  	0.004866 
1963.534688  	0.003625 
1965.463504  	0.004451 
1967.392320  	0.004242 
1969.321136  	0.003961 
1971.249952  	0.004031 
1973.178768  	0.005382 
1975.107584  	0.005044 
1977.036400  	0.004775 
1978.965216  	0.005923 
1980.894032  	0.006620 
1982.822848  	0.005088 
1984.751664  	0.005280 
1986.680480  	0.005811 
1988.609296  	0.006068 
1990.538112  	0.005695 
1992.466928  	0.005875 
1994.395744  	0.005321 
1996.324560  	0.005148 
1998.253376  	0.004297 
2000.182192  	0.004266 
2002.111008  	0.004579 
2004.039824  	0.005100 
2005.968640  	0.004638 
2007.897456  	0.005875 
2009.826272  	0.005410 
2011.755088  	0.003618 
2013.683904  	0.003572 
2015.612720  	0.004847 
2017.541536  	0.004161 
2019.470352  	0.004190 
2021.399168  	0.004430 
2023.327984  	0.005634 
2025.256800  	0.005515 
2027.185616  	0.005080 
2029.114432  	0.004805 
2031.043248  	0.005803 
2032.972064  	0.005432 
2034.900880  	0.005728 
2036.829696  	0.006294 
2038.758512  	0.006457 
2040.687328  	0.005389 
2042.616144  	0.005076 
2044.544960  	0.005358 
2046.473776  	0.005501 
2048.402592  	0.005667 
2050.331408  	0.007011 
2052.260224  	0.006748 
2054.189040  	0.006586 
2056.117856  	0.006142 
2058.046672  	0.006031 
2059.975488  	0.005722 
2061.904304  	0.005861 
2063.833120  	0.006568 
2065.761936  	0.006935 
2067.690752  	0.006233 
2069.619568  	0.005871 
2071.548384  	0.005373 
2073.477200  	0.005819 
2075.406016  	0.006664 
2077.334832  	0.006923 
2079.263648  	0.006282 
2081.192464  	0.006266 
2083.121280  	0.006504 
2085.050096  	0.006582 
2086.978912  	0.006374 
2088.907728  	0.006425 
2090.836544  	0.006047 
2092.765360  	0.005850 
2094.694176  	0.006007 
2096.622992  	0.005966 
2098.551808  	0.005376 
2100.480624  	0.005597 
2102.409440  	0.006012 
2104.338256  	0.006285 
2106.267072  	0.006027 
2108.195888  	0.006268 
2110.124704  	0.006914 
2112.053520  	0.007271 
2113.982336  	0.006876 
2115.911152  	0.006876 
2117.839968  	0.006515 
2119.768784  	0.006018 
2121.697600  	0.005570 
2123.626416  	0.005374 
2125.555232  	0.005159 
2127.484048  	0.005523 
2129.412864  	0.005328 
2131.341680  	0.004698 
2133.270496  	0.005035 
2135.199312  	0.005728 
2137.128128  	0.006190 
2139.056944  	0.006294 
2140.985760  	0.005337 
2142.914576  	0.005806 
2144.843392  	0.005061 
2146.772208  	0.005170 
2148.701024  	0.005506 
2150.629840  	0.005904 
2152.558656  	0.005571 
2154.487472  	0.004492 
2156.416288  	0.002663 
2158.345104  	0.005109 
2160.273920  	0.008533 
2162.202736  	0.008967 
2164.131552  	0.007755 
2166.060368  	0.008978 
2167.989184  	0.008237 
2169.918000  	0.006864 
2171.846816  	0.005855 
2173.775632  	0.006149 
2175.704448  	0.006456 
2177.633264  	0.006743 
2179.562080  	0.006570 
2181.490896  	0.006810 
2183.419712  	0.006964 
2185.348528  	0.007385 
2187.277344  	0.007124 
2189.206160  	0.006809 
2191.134976  	0.007692 
2193.063792  	0.008848 
2194.992608  	0.008813 
2196.921424  	0.007835 
2198.850240  	0.007599 
2200.779056  	0.007326 
2202.707872  	0.007000 
2204.636688  	0.007380 
2206.565504  	0.007394 
2208.494320  	0.007470 
2210.423136  	0.006404 
2212.351952  	0.006494 
2214.280768  	0.006455 
2216.209584  	0.006019 
2218.138400  	0.006413 
2220.067216  	0.006767 
2221.996032  	0.006306 
2223.924848  	0.006333 
2225.853664  	0.006837 
2227.782480  	0.007378 
2229.711296  	0.007575 
2231.640112  	0.007710 
2233.568928  	0.007127 
2235.497744  	0.006665 
2237.426560  	0.006373 
2239.355376  	0.006831 
2241.284192  	0.006694 
2243.213008  	0.006667 
2245.141824  	0.006782 
2247.070640  	0.006468 
2248.999456  	0.006056 
2250.928272  	0.006179 
2252.857088  	0.005919 
2254.785904  	0.005985 
2256.714720  	0.006666 
2258.643536  	0.007156 
2260.572352  	0.006710 
2262.501168  	0.006781 
2264.429984  	0.007035 
2266.358800  	0.007367 
2268.287616  	0.007410 
2270.216432  	0.007291 
2272.145248  	0.007014 
2274.074064  	0.007028 
2276.002880  	0.006816 
2277.931696  	0.007245 
2279.860512  	0.007721 
2281.789328  	0.008034 
2283.718144  	0.008020 
2285.646960  	0.008340 
2287.575776  	0.008525 
2289.504592  	0.008005 
2291.433408  	0.007432 
2293.362224  	0.007442 
2295.291040  	0.007557 
2297.219856  	0.007704 
2299.148672  	0.007757 
2301.077488  	0.007820 
2303.006304  	0.007723 
2304.935120  	0.007431 
2306.863936  	0.007168 
2308.792752  	0.006915 
2310.721568  	0.006594 
2312.650384  	0.006282 
2314.579200  	0.005768 
2316.508016  	0.005413 
2318.436832  	0.004691 
2320.365648  	0.003807 
2322.294464  	0.003091 
2324.223280  	0.001896 
2326.152096  	-0.000099 
2328.080912  	-0.001501 
2330.009728  	-0.002411 
2331.938544  	-0.003234 
2333.867360  	-0.004424 
2335.796176  	-0.005456 
2337.724992  	-0.006402 
2339.653808  	-0.006593 
2341.582624  	-0.006213 
2343.511440  	-0.004779 
2345.440256  	-0.002565 
2347.369072  	0.000502 
2349.297888  	0.001250 
2351.226704  	-0.001283 
2353.155520  	-0.004697 
2355.084336  	-0.007722 
2357.013152  	-0.009743 
2358.941968  	-0.010654 
2360.870784  	-0.011121 
2362.799600  	-0.010568 
2364.728416  	-0.009724 
2366.657232  	-0.008019 
2368.586048  	-0.005947 
2370.514864  	-0.003168 
2372.443680  	-0.000472 
2374.372496  	0.002101 
2376.301312  	0.004237 
2378.230128  	0.005961 
2380.158944  	0.006779 
2382.087760  	0.007179 
2384.016576  	0.007534 
2385.945392  	0.007690 
2387.874208  	0.007360 
2389.803024  	0.007067 
2391.731840  	0.006884 
2393.660656  	0.007010 
2395.589472  	0.007171 
2397.518288  	0.007227 
2399.447104  	0.007138 
2401.375920  	0.006928 
2403.304736  	0.006922 
2405.233552  	0.007258 
2407.162368  	0.007547 
2409.091184  	0.007470 
2411.020000  	0.007378 
2412.948816  	0.007575 
2414.877632  	0.007598 
2416.806448  	0.007683 
2418.735264  	0.007701 
2420.664080  	0.007604 
2422.592896  	0.007403 
2424.521712  	0.007358 
2426.450528  	0.007519 
2428.379344  	0.007595 
2430.308160  	0.007538 
2432.236976  	0.007576 
2434.165792  	0.007758 
2436.094608  	0.008195 
2438.023424  	0.008350 
2439.952240  	0.008519 
2441.881056  	0.008665 
2443.809872  	0.008432 
2445.738688  	0.008241 
2447.667504  	0.008428 
2449.596320  	0.008465 
2451.525136  	0.008397 
2453.453952  	0.008355 
2455.382768  	0.008740 
2457.311584  	0.009003 
2459.240400  	0.008930 
2461.169216  	0.008727 
2463.098032  	0.008698 
2465.026848  	0.008654 
2466.955664  	0.008548 
2468.884480  	0.008524 
2470.813296  	0.008500 
2472.742112  	0.008276 
2474.670928  	0.008409 
2476.599744  	0.008550 
2478.528560  	0.008496 
2480.457376  	0.008621 
2482.386192  	0.008772 
2484.315008  	0.008798 
2486.243824  	0.008850 
2488.172640  	0.008692 
2490.101456  	0.008702 
2492.030272  	0.009046 
2493.959088  	0.009139 
2495.887904  	0.008943 
2497.816720  	0.008950 
2499.745536  	0.009026 
2501.674352  	0.009217 
2503.603168  	0.009302 
2505.531984  	0.009304 
2507.460800  	0.009247 
2509.389616  	0.009170 
2511.318432  	0.009105 
2513.247248  	0.009228 
2515.176064  	0.009309 
2517.104880  	0.009516 
2519.033696  	0.009484 
2520.962512  	0.009483 
2522.891328  	0.009783 
2524.820144  	0.009835 
2526.748960  	0.009827 
2528.677776  	0.010012 
2530.606592  	0.009931 
2532.535408  	0.009987 
2534.464224  	0.010149 
2536.393040  	0.010135 
2538.321856  	0.009948 
2540.250672  	0.010021 
2542.179488  	0.010150 
2544.108304  	0.010292 
2546.037120  	0.010160 
2547.965936  	0.010402 
2549.894752  	0.010531 
2551.823568  	0.010566 
2553.752384  	0.010660 
2555.681200  	0.010797 
2557.610016  	0.010755 
2559.538832  	0.010780 
2561.467648  	0.010912 
2563.396464  	0.011140 
2565.325280  	0.011374 
2567.254096  	0.011411 
2569.182912  	0.011203 
2571.111728  	0.011237 
2573.040544  	0.011148 
2574.969360  	0.011127 
2576.898176  	0.011445 
2578.826992  	0.011713 
2580.755808  	0.011561 
2582.684624  	0.011473 
2584.613440  	0.011444 
2586.542256  	0.011654 
2588.471072  	0.011838 
2590.399888  	0.011812 
2592.328704  	0.011862 
2594.257520  	0.012147 
2596.186336  	0.012475 
2598.115152  	0.012348 
2600.043968  	0.012008 
2601.972784  	0.012105 
2603.901600  	0.012390 
2605.830416  	0.012491 
2607.759232  	0.012362 
2609.688048  	0.012504 
2611.616864  	0.012775 
2613.545680  	0.012898 
2615.474496  	0.012890 
2617.403312  	0.012932 
2619.332128  	0.013071 
2621.260944  	0.013049 
2623.189760  	0.012993 
2625.118576  	0.013174 
2627.047392  	0.013358 
2628.976208  	0.013597 
2630.905024  	0.013825 
2632.833840  	0.014099 
2634.762656  	0.014165 
2636.691472  	0.014117 
2638.620288  	0.014106 
2640.549104  	0.014190 
2642.477920  	0.014235 
2644.406736  	0.014346 
2646.335552  	0.014555 
2648.264368  	0.014673 
2650.193184  	0.014760 
2652.122000  	0.014936 
2654.050816  	0.015103 
2655.979632  	0.015046 
2657.908448  	0.014966 
2659.837264  	0.014978 
2661.766080  	0.014956 
2663.694896  	0.015011 
2665.623712  	0.014988 
2667.552528  	0.015039 
2669.481344  	0.015245 
2671.410160  	0.015458 
2673.338976  	0.015519 
2675.267792  	0.015595 
2677.196608  	0.015689 
2679.125424  	0.015803 
2681.054240  	0.015838 
2682.983056  	0.015923 
2684.911872  	0.016108 
2686.840688  	0.016256 
2688.769504  	0.016293 
2690.698320  	0.016291 
2692.627136  	0.016354 
2694.555952  	0.016465 
2696.484768  	0.016452 
2698.413584  	0.016464 
2700.342400  	0.016487 
2702.271216  	0.016675 
2704.200032  	0.016964 
2706.128848  	0.017077 
2708.057664  	0.017057 
2709.986480  	0.017038 
2711.915296  	0.017066 
2713.844112  	0.017228 
2715.772928  	0.017391 
2717.701744  	0.017517 
2719.630560  	0.017533 
2721.559376  	0.017591 
2723.488192  	0.017679 
2725.417008  	0.017852 
2727.345824  	0.017942 
2729.274640  	0.017876 
2731.203456  	0.017888 
2733.132272  	0.018059 
2735.061088  	0.018118 
2736.989904  	0.018136 
2738.918720  	0.018235 
2740.847536  	0.018221 
2742.776352  	0.018309 
2744.705168  	0.018372 
2746.633984  	0.018321 
2748.562800  	0.018446 
2750.491616  	0.018542 
2752.420432  	0.018503 
2754.349248  	0.018487 
2756.278064  	0.018549 
2758.206880  	0.018593 
2760.135696  	0.018849 
2762.064512  	0.018826 
2763.993328  	0.018727 
2765.922144  	0.018814 
2767.850960  	0.018852 
2769.779776  	0.018804 
2771.708592  	0.018795 
2773.637408  	0.018795 
2775.566224  	0.018829 
2777.495040  	0.018812 
2779.423856  	0.018793 
2781.352672  	0.018871 
2783.281488  	0.019005 
2785.210304  	0.019046 
2787.139120  	0.019155 
2789.067936  	0.019246 
2790.996752  	0.019252 
2792.925568  	0.019320 
2794.854384  	0.019329 
2796.783200  	0.019388 
2798.712016  	0.019262 
2800.640832  	0.019201 
2802.569648  	0.019353 
2804.498464  	0.019400 
2806.427280  	0.019417 
2808.356096  	0.019477 
2810.284912  	0.019639 
2812.213728  	0.019632 
2814.142544  	0.019544 
2816.071360  	0.019614 
2818.000176  	0.019520 
2819.928992  	0.019311 
2821.857808  	0.019226 
2823.786624  	0.019217 
2825.715440  	0.019102 
2827.644256  	0.018922 
2829.573072  	0.018801 
2831.501888  	0.018636 
2833.430704  	0.018391 
2835.359520  	0.018158 
2837.288336  	0.017946 
2839.217152  	0.017685 
2841.145968  	0.017339 
2843.074784  	0.017028 
2845.003600  	0.016860 
2846.932416  	0.016738 
2848.861232  	0.016510 
2850.790048  	0.016033 
2852.718864  	0.015441 
2854.647680  	0.014674 
2856.576496  	0.013878 
2858.505312  	0.013205 
2860.434128  	0.012460 
2862.362944  	0.011524 
2864.291760  	0.010658 
2866.220576  	0.009849 
2868.149392  	0.009380 
2870.078208  	0.009240 
2872.007024  	0.009147 
2873.935840  	0.009084 
2875.864656  	0.009000 
2877.793472  	0.008800 
2879.722288  	0.008339 
2881.651104  	0.007624 
2883.579920  	0.007105 
2885.508736  	0.007114 
2887.437552  	0.007261 
2889.366368  	0.007201 
2891.295184  	0.006943 
2893.224000  	0.006722 
2895.152816  	0.006775 
2897.081632  	0.006362 
2899.010448  	0.004594 
2900.939264  	0.003113 
2902.868080  	0.004385 
2904.796896  	0.005856 
2906.725712  	0.006520 
2908.654528  	0.006977 
2910.583344  	0.007463 
2912.512160  	0.008520 
2914.440976  	0.009941 
2916.369792  	0.010842 
2918.298608  	0.011250 
2920.227424  	0.011654 
2922.156240  	0.012308 
2924.085056  	0.012940 
2926.013872  	0.013638 
2927.942688  	0.014474 
2929.871504  	0.015204 
2931.800320  	0.015860 
2933.729136  	0.016341 
2935.657952  	0.016610 
2937.586768  	0.017020 
2939.515584  	0.017145 
2941.444400  	0.017011 
2943.373216  	0.016980 
2945.302032  	0.017067 
2947.230848  	0.017065 
2949.159664  	0.016649 
2951.088480  	0.015952 
2953.017296  	0.015400 
2954.946112  	0.014611 
2956.874928  	0.013675 
2958.803744  	0.012836 
2960.732560  	0.012165 
2962.661376  	0.011449 
2964.590192  	0.010375 
2966.519008  	0.009059 
2968.447824  	0.007785 
2970.376640  	0.006919 
2972.305456  	0.006427 
2974.234272  	0.006551 
2976.163088  	0.006691 
2978.091904  	0.006725 
2980.020720  	0.006613 
2981.949536  	0.006664 
2983.878352  	0.006237 
2985.807168  	0.005156 
2987.735984  	0.004275 
2989.664800  	0.004872 
2991.593616  	0.008308 
2993.522432  	0.010236 
2995.451248  	0.010603 
2997.380064  	0.011524 
2999.308880  	0.012848 
3001.237696  	0.014190 
3003.166512  	0.015579 
3005.095328  	0.016906 
3007.024144  	0.018387 
3008.952960  	0.019944 
3010.881776  	0.021498 
3012.810592  	0.022869 
3014.739408  	0.024098 
3016.668224  	0.025312 
3018.597040  	0.026429 
3020.525856  	0.027434 
3022.454672  	0.028471 
3024.383488  	0.029506 
3026.312304  	0.030462 
3028.241120  	0.031323 
3030.169936  	0.031991 
3032.098752  	0.032915 
3034.027568  	0.033639 
3035.956384  	0.033986 
3037.885200  	0.034583 
3039.814016  	0.035179 
3041.742832  	0.035731 
3043.671648  	0.036295 
3045.600464  	0.036715 
3047.529280  	0.037011 
3049.458096  	0.037435 
3051.386912  	0.037802 
3053.315728  	0.038184 
3055.244544  	0.038525 
3057.173360  	0.038991 
3059.102176  	0.039366 
3061.030992  	0.039553 
3062.959808  	0.039855 
3064.888624  	0.040376 
3066.817440  	0.040702 
3068.746256  	0.040990 
3070.675072  	0.041353 
3072.603888  	0.041784 
3074.532704  	0.042256 
3076.461520  	0.042664 
3078.390336  	0.042893 
3080.319152  	0.043276 
3082.247968  	0.043760 
3084.176784  	0.044174 
3086.105600  	0.044402 
3088.034416  	0.044691 
3089.963232  	0.045129 
3091.892048  	0.045513 
3093.820864  	0.045770 
3095.749680  	0.046079 
3097.678496  	0.046322 
3099.607312  	0.046807 
3101.536128  	0.047239 
3103.464944  	0.047566 
3105.393760  	0.047913 
3107.322576  	0.048353 
3109.251392  	0.048623 
3111.180208  	0.048904 
3113.109024  	0.049143 
3115.037840  	0.049427 
3116.966656  	0.049745 
3118.895472  	0.049949 
3120.824288  	0.050156 
3122.753104  	0.050423 
3124.681920  	0.050799 
3126.610736  	0.051031 
3128.539552  	0.051157 
3130.468368  	0.051361 
3132.397184  	0.051625 
3134.326000  	0.051813 
3136.254816  	0.052017 
3138.183632  	0.052374 
3140.112448  	0.052525 
3142.041264  	0.052644 
3143.970080  	0.052977 
3145.898896  	0.053286 
3147.827712  	0.053613 
3149.756528  	0.053900 
3151.685344  	0.054202 
3153.614160  	0.054521 
3155.542976  	0.054732 
3157.471792  	0.054924 
3159.400608  	0.055550 
3161.329424  	0.056065 
3163.258240  	0.056282 
3165.187056  	0.056478 
3167.115872  	0.056578 
3169.044688  	0.056697 
3170.973504  	0.056833 
3172.902320  	0.057039 
3174.831136  	0.057206 
3176.759952  	0.057422 
3178.688768  	0.057886 
3180.617584  	0.058119 
3182.546400  	0.057876 
3184.475216  	0.058076 
3186.404032  	0.058296 
3188.332848  	0.058169 
3190.261664  	0.058466 
3192.190480  	0.058623 
3194.119296  	0.058380 
3196.048112  	0.058322 
3197.976928  	0.058600 
3199.905744  	0.058661 
3201.834560  	0.058604 
3203.763376  	0.058646 
3205.692192  	0.058539 
3207.621008  	0.058333 
3209.549824  	0.058212 
3211.478640  	0.058166 
3213.407456  	0.058064 
3215.336272  	0.058070 
3217.265088  	0.057929 
3219.193904  	0.057618 
3221.122720  	0.057429 
3223.051536  	0.057395 
3224.980352  	0.057285 
3226.909168  	0.057073 
3228.837984  	0.056824 
3230.766800  	0.056906 
3232.695616  	0.057034 
3234.624432  	0.056875 
3236.553248  	0.056624 
3238.482064  	0.056570 
3240.410880  	0.056661 
3242.339696  	0.056569 
3244.268512  	0.056420 
3246.197328  	0.056453 
3248.126144  	0.056382 
3250.054960  	0.056302 
3251.983776  	0.056376 
3253.912592  	0.056642 
3255.841408  	0.056794 
3257.770224  	0.056898 
3259.699040  	0.057119 
3261.627856  	0.057220 
3263.556672  	0.057214 
3265.485488  	0.057163 
3267.414304  	0.057392 
3269.343120  	0.057623 
3271.271936  	0.057864 
3273.200752  	0.058020 
3275.129568  	0.058131 
3277.058384  	0.058147 
3278.987200  	0.058276 
3280.916016  	0.058400 
3282.844832  	0.058578 
3284.773648  	0.058702 
3286.702464  	0.058728 
3288.631280  	0.058859 
3290.560096  	0.059238 
3292.488912  	0.059484 
3294.417728  	0.059454 
3296.346544  	0.059555 
3298.275360  	0.059726 
3300.204176  	0.060083 
3302.132992  	0.060274 
3304.061808  	0.060432 
3305.990624  	0.060812 
3307.919440  	0.060984 
3309.848256  	0.060931 
3311.777072  	0.060907 
3313.705888  	0.061180 
3315.634704  	0.061776 
3317.563520  	0.062085 
3319.492336  	0.062161 
3321.421152  	0.062343 
3323.349968  	0.062476 
3325.278784  	0.062706 
3327.207600  	0.062868 
3329.136416  	0.062869 
3331.065232  	0.062796 
3332.994048  	0.062843 
3334.922864  	0.062919 
3336.851680  	0.062917 
3338.780496  	0.062852 
3340.709312  	0.062806 
3342.638128  	0.062706 
3344.566944  	0.062562 
3346.495760  	0.062336 
3348.424576  	0.062096 
3350.353392  	0.062058 
3352.282208  	0.061898 
3354.211024  	0.061798 
3356.139840  	0.061629 
3358.068656  	0.061232 
3359.997472  	0.060955 
3361.926288  	0.060834 
3363.855104  	0.060591 
3365.783920  	0.060371 
3367.712736  	0.060075 
3369.641552  	0.059518 
3371.570368  	0.059202 
3373.499184  	0.058974 
3375.428000  	0.058698 
3377.356816  	0.058562 
3379.285632  	0.058391 
3381.214448  	0.058166 
3383.143264  	0.057900 
3385.072080  	0.057819 
3387.000896  	0.057533 
3388.929712  	0.057139 
3390.858528  	0.056851 
3392.787344  	0.056614 
3394.716160  	0.056146 
3396.644976  	0.055708 
3398.573792  	0.055358 
3400.502608  	0.055003 
3402.431424  	0.054704 
3404.360240  	0.054390 
3406.289056  	0.054011 
3408.217872  	0.053593 
3410.146688  	0.053297 
3412.075504  	0.053230 
3414.004320  	0.053120 
3415.933136  	0.052735 
3417.861952  	0.052153 
3419.790768  	0.051946 
3421.719584  	0.051650 
3423.648400  	0.051099 
3425.577216  	0.050913 
3427.506032  	0.050768 
3429.434848  	0.050283 
3431.363664  	0.049917 
3433.292480  	0.049539 
3435.221296  	0.049237 
3437.150112  	0.048908 
3439.078928  	0.048623 
3441.007744  	0.048377 
3442.936560  	0.048078 
3444.865376  	0.047438 
3446.794192  	0.046893 
3448.723008  	0.046718 
3450.651824  	0.046337 
3452.580640  	0.045762 
3454.509456  	0.045327 
3456.438272  	0.044874 
3458.367088  	0.044628 
3460.295904  	0.044572 
3462.224720  	0.044023 
3464.153536  	0.043302 
3466.082352  	0.042946 
3468.011168  	0.042592 
3469.939984  	0.042148 
3471.868800  	0.041516 
3473.797616  	0.041046 
3475.726432  	0.040690 
3477.655248  	0.040112 
3479.584064  	0.039688 
3481.512880  	0.039424 
3483.441696  	0.038816 
3485.370512  	0.037972 
3487.299328  	0.037512 
3489.228144  	0.037226 
3491.156960  	0.036633 
3493.085776  	0.036107 
3495.014592  	0.035765 
3496.943408  	0.035512 
3498.872224  	0.035076 
3500.801040  	0.034753 
3502.729856  	0.034450 
3504.658672  	0.034026 
3506.587488  	0.033327 
3508.516304  	0.032881 
3510.445120  	0.032858 
3512.373936  	0.032546 
3514.302752  	0.031943 
3516.231568  	0.031508 
3518.160384  	0.031123 
3520.089200  	0.030686 
3522.018016  	0.030411 
3523.946832  	0.030480 
3525.875648  	0.030173 
3527.804464  	0.029568 
3529.733280  	0.029156 
3531.662096  	0.028760 
3533.590912  	0.028226 
3535.519728  	0.028062 
3537.448544  	0.027946 
3539.377360  	0.027293 
3541.306176  	0.026619 
3543.234992  	0.026342 
3545.163808  	0.026692 
3547.092624  	0.026526 
3549.021440  	0.025465 
3550.950256  	0.024829 
3552.879072  	0.025021 
3554.807888  	0.024788 
3556.736704  	0.024098 
3558.665520  	0.023750 
3560.594336  	0.023665 
3562.523152  	0.023109 
3564.451968  	0.022647 
3566.380784  	0.022954 
3568.309600  	0.023107 
3570.238416  	0.021991 
3572.167232  	0.020973 
3574.096048  	0.020366 
3576.024864  	0.019747 
3577.953680  	0.019380 
3579.882496  	0.019453 
3581.811312  	0.019289 
3583.740128  	0.018402 
3585.668944  	0.017746 
3587.597760  	0.018276 
3589.526576  	0.017808 
3591.455392  	0.016208 
3593.384208  	0.015713 
3595.313024  	0.015568 
3597.241840  	0.014973 
3599.170656  	0.013893 
3601.099472  	0.013547 
3603.028288  	0.013573 
3604.957104  	0.012945 
3606.885920  	0.012205 
3608.814736  	0.012096 
3610.743552  	0.011256 
3612.672368  	0.010456 
3614.601184  	0.010307 
3616.530000  	0.009037 
3618.458816  	0.008295 
3620.387632  	0.008656 
3622.316448  	0.007985 
3624.245264  	0.006888 
3626.174080  	0.005537 
3628.102896  	0.004627 
3630.031712  	0.005750 
3631.960528  	0.005206 
3633.889344  	0.004326 
3635.818160  	0.003481 
3637.746976  	0.002671 
3639.675792  	0.002403 
3641.604608  	0.001923 
3643.533424  	0.000807 
3645.462240  	-0.001045 
3647.391056  	-0.002520 
3649.319872  	-0.003153 
3651.248688  	-0.002227 
3653.177504  	-0.002640 
3655.106320  	-0.004160 
3657.035136  	-0.004371 
3658.963952  	-0.004709 
3660.892768  	-0.005604 
3662.821584  	-0.006125 
3664.750400  	-0.006399 
3666.679216  	-0.007481 
3668.608032  	-0.009107 
3670.536848  	-0.008536 
3672.465664  	-0.008052 
3674.394480  	-0.010476 
3676.323296  	-0.009572 
3678.252112  	-0.007124 
3680.180928  	-0.006357 
3682.109744  	-0.006602 
3684.038560  	-0.007283 
3685.967376  	-0.008402 
3687.896192  	-0.009691 
3689.825008  	-0.009275 
3691.753824  	-0.007799 
3693.682640  	-0.006900 
3695.611456  	-0.006740 
3697.540272  	-0.006336 
3699.469088  	-0.006273 
3701.397904  	-0.005596 
3703.326720  	-0.004462 
3705.255536  	-0.004183 
3707.184352  	-0.004585 
3709.113168  	-0.005373 
3711.041984  	-0.005185 
3712.970800  	-0.003340 
3714.899616  	-0.002413 
3716.828432  	-0.002811 
3718.757248  	-0.003309 
3720.686064  	-0.003783 
3722.614880  	-0.003277 
3724.543696  	-0.002644 
3726.472512  	-0.002355 
3728.401328  	-0.002885 
3730.330144  	-0.004671 
3732.258960  	-0.005638 
3734.187776  	-0.004363 
3736.116592  	-0.002322 
3738.045408  	-0.002626 
3739.974224  	-0.003450 
3741.903040  	-0.004320 
3743.831856  	-0.004532 
3745.760672  	-0.002821 
3747.689488  	-0.004530 
3749.618304  	-0.005586 
3751.547120  	-0.004055 
3753.475936  	-0.002018 
3755.404752  	-0.002338 
3757.333568  	-0.002989 
3759.262384  	-0.002907 
3761.191200  	-0.002152 
3763.120016  	-0.002354 
3765.048832  	-0.002810 
3766.977648  	-0.002671 
3768.906464  	-0.003104 
3770.835280  	-0.002347 
3772.764096  	-0.001799 
3774.692912  	-0.002159 
3776.621728  	-0.002754 
3778.550544  	-0.003134 
3780.479360  	-0.002357 
3782.408176  	-0.002332 
3784.336992  	-0.002817 
3786.265808  	-0.002507 
3788.194624  	-0.002255 
3790.123440  	-0.002453 
3792.052256  	-0.002510 
3793.981072  	-0.002818 
3795.909888  	-0.003257 
3797.838704  	-0.003106 
3799.767520  	-0.004416 
3801.696336  	-0.004335 
3803.625152  	-0.003115 
3805.553968  	-0.003981 
3807.482784  	-0.003100 
3809.411600  	-0.002122 
3811.340416  	-0.002337 
3813.269232  	-0.003146 
3815.198048  	-0.004301 
3817.126864  	-0.003531 
3819.055680  	-0.004463 
3820.984496  	-0.004603 
3822.913312  	-0.002490 
3824.842128  	-0.002675 
3826.770944  	-0.002815 
3828.699760  	-0.002937 
3830.628576  	-0.003673 
3832.557392  	-0.003619 
3834.486208  	-0.004056 
3836.415024  	-0.004826 
3838.343840  	-0.004217 
3840.272656  	-0.003397 
3842.201472  	-0.003238 
3844.130288  	-0.002864 
3846.059104  	-0.002319 
3847.987920  	-0.002726 
3849.916736  	-0.003896 
3851.845552  	-0.005757 
3853.774368  	-0.004388 
3855.703184  	-0.002139 
3857.632000  	-0.002297 
3859.560816  	-0.002938 
3861.489632  	-0.003365 
3863.418448  	-0.003404 
3865.347264  	-0.002830 
3867.276080  	-0.003211 
3869.204896  	-0.003624 
3871.133712  	-0.002087 
3873.062528  	-0.002590 
3874.991344  	-0.002222 
3876.920160  	-0.002364 
3878.848976  	-0.003074 
3880.777792  	-0.002401 
3882.706608  	-0.002093 
3884.635424  	-0.002786 
3886.564240  	-0.002064 
3888.493056  	-0.002506 
3890.421872  	-0.002852 
3892.350688  	-0.001956 
3894.279504  	-0.001964 
3896.208320  	-0.002539 
3898.137136  	-0.002818 
3900.065952  	-0.002534 
3901.994768  	-0.002434 
3903.923584  	-0.001843 
3905.852400  	-0.001309 
3907.781216  	-0.001838 
3909.710032  	-0.002199 
3911.638848  	-0.002209 
3913.567664  	-0.002380 
3915.496480  	-0.002234 
3917.425296  	-0.001324 
3919.354112  	-0.001361 
3921.282928  	-0.001684 
3923.211744  	-0.001887 
3925.140560  	-0.001659 
3927.069376  	-0.001996 
3928.998192  	-0.002366 
3930.927008  	-0.001809 
3932.855824  	-0.001176 
3934.784640  	-0.001518 
3936.713456  	-0.001736 
3938.642272  	-0.001696 
3940.571088  	-0.001993 
3942.499904  	-0.001418 
3944.428720  	-0.001180 
3946.357536  	-0.001728 
3948.286352  	-0.001708 
3950.215168  	-0.001864 
3952.143984  	-0.002244 
3954.072800  	-0.002371 
3956.001616  	-0.002259 
3957.930432  	-0.001960 
3959.859248  	-0.001726 
3961.788064  	-0.001845 
3963.716880  	-0.002029 
3965.645696  	-0.002033 
3967.574512  	-0.001943 
3969.503328  	-0.001993 
3971.432144  	-0.002064 
3973.360960  	-0.002099 
3975.289776  	-0.001860 
3977.218592  	-0.001832 
3979.147408  	-0.001937 
3981.076224  	-0.002059 
3983.005040  	-0.002077 
3984.933856  	-0.002004 
3986.862672  	-0.002054 
3988.791488  	-0.002174 
3990.720304  	-0.002057 
3992.649120  	-0.001993 
3994.577936  	-0.002044 
3996.506752  	-0.002115 
3998.435568  	-0.002102 
4000.364384  	-0.002141 