##TITLE=No Description
##DATA TYPE=INFRARED SPECTRUM
##XUNITS=1/CM
##YUNITS=Abs
399.264912  	0.576600 
401.193728  	0.576765 
403.122544  	0.566788 
405.051360  	0.569303 
406.980176  	0.579390 
408.908992  	0.579189 
410.837808  	0.576153 
412.766624  	0.570673 
414.695440  	0.571514 
416.624256  	0.562433 
418.553072  	0.551728 
420.481888  	0.546393 
422.410704  	0.557159 
424.339520  	0.555695 
426.268336  	0.545634 
428.197152  	0.534568 
430.125968  	0.534300 
432.054784  	0.532767 
433.983600  	0.530926 
435.912416  	0.515160 
437.841232  	0.514136 
439.770048  	0.521755 
441.698864  	0.525750 
443.627680  	0.519605 
445.556496  	0.518083 
447.485312  	0.515484 
449.414128  	0.516062 
451.342944  	0.513017 
453.271760  	0.512808 
455.200576  	0.506578 
457.129392  	0.508835 
459.058208  	0.508314 
460.987024  	0.509494 
462.915840  	0.510660 
464.844656  	0.512612 
466.773472  	0.508071 
468.702288  	0.509893 
470.631104  	0.508426 
472.559920  	0.507058 
474.488736  	0.501066 
476.417552  	0.504175 
478.346368  	0.504010 
480.275184  	0.502118 
482.204000  	0.500944 
484.132816  	0.501709 
486.061632  	0.498527 
487.990448  	0.497891 
489.919264  	0.497190 
491.848080  	0.499581 
493.776896  	0.495897 
495.705712  	0.494833 
497.634528  	0.491197 
499.563344  	0.490714 
501.492160  	0.489593 
503.420976  	0.489356 
505.349792  	0.486715 
507.278608  	0.488963 
509.207424  	0.488947 
511.136240  	0.489448 
513.065056  	0.488993 
514.993872  	0.488725 
516.922688  	0.488558 
518.851504  	0.490695 
520.780320  	0.491000 
522.709136  	0.492140 
524.637952  	0.487798 
526.566768  	0.484546 
528.495584  	0.482390 
530.424400  	0.482807 
532.353216  	0.478918 
534.282032  	0.476775 
536.210848  	0.472797 
538.139664  	0.467545 
540.068480  	0.463921 
541.997296  	0.459768 
543.926112  	0.455456 
545.854928  	0.453172 
547.783744  	0.449068 
549.712560  	0.445755 
551.641376  	0.441026 
553.570192  	0.437613 
555.499008  	0.435499 
557.427824  	0.432763 
559.356640  	0.428308 
561.285456  	0.425874 
563.214272  	0.422511 
565.143088  	0.419783 
567.071904  	0.416109 
569.000720  	0.413350 
570.929536  	0.409154 
572.858352  	0.405062 
574.787168  	0.401393 
576.715984  	0.398442 
578.644800  	0.394783 
580.573616  	0.392257 
582.502432  	0.388758 
584.431248  	0.386070 
586.360064  	0.383612 
588.288880  	0.381416 
590.217696  	0.378832 
592.146512  	0.376500 
594.075328  	0.374150 
596.004144  	0.371774 
597.932960  	0.370258 
599.861776  	0.369556 
601.790592  	0.368053 
603.719408  	0.366585 
605.648224  	0.365007 
607.577040  	0.364976 
609.505856  	0.364426 
611.434672  	0.363080 
613.363488  	0.360491 
615.292304  	0.358832 
617.221120  	0.356615 
619.149936  	0.355226 
621.078752  	0.353522 
623.007568  	0.351235 
624.936384  	0.349290 
626.865200  	0.348323 
628.794016  	0.347422 
630.722832  	0.345812 
632.651648  	0.343595 
634.580464  	0.343185 
636.509280  	0.343879 
638.438096  	0.343701 
640.366912  	0.342870 
642.295728  	0.341096 
644.224544  	0.338209 
646.153360  	0.335412 
648.082176  	0.331895 
650.010992  	0.328923 
651.939808  	0.325428 
653.868624  	0.321424 
655.797440  	0.317653 
657.726256  	0.314643 
659.655072  	0.310888 
661.583888  	0.307889 
663.512704  	0.304844 
665.441520  	0.302104 
667.370336  	0.296137 
669.299152  	0.290047 
671.227968  	0.290123 
673.156784  	0.288518 
675.085600  	0.286485 
677.014416  	0.284705 
678.943232  	0.282983 
680.872048  	0.281418 
682.800864  	0.279932 
684.729680  	0.278582 
686.658496  	0.276584 
688.587312  	0.274632 
690.516128  	0.272734 
692.444944  	0.271666 
694.373760  	0.270136 
696.302576  	0.268414 
698.231392  	0.266172 
700.160208  	0.263525 
702.089024  	0.261089 
704.017840  	0.259708 
705.946656  	0.257224 
707.875472  	0.254263 
709.804288  	0.252176 
711.733104  	0.250751 
713.661920  	0.249340 
715.590736  	0.248384 
717.519552  	0.247842 
719.448368  	0.248186 
721.377184  	0.249004 
723.306000  	0.249663 
725.234816  	0.249278 
727.163632  	0.247620 
729.092448  	0.245102 
731.021264  	0.242587 
732.950080  	0.240014 
734.878896  	0.237176 
736.807712  	0.234611 
738.736528  	0.232918 
740.665344  	0.231722 
742.594160  	0.230367 
744.522976  	0.228663 
746.451792  	0.227435 
748.380608  	0.226547 
750.309424  	0.225550 
752.238240  	0.224577 
754.167056  	0.224363 
756.095872  	0.223545 
758.024688  	0.222377 
759.953504  	0.221749 
761.882320  	0.221731 
763.811136  	0.221867 
765.739952  	0.221201 
767.668768  	0.219410 
769.597584  	0.217800 
771.526400  	0.217623 
773.455216  	0.219174 
775.384032  	0.221403 
777.312848  	0.224353 
779.241664  	0.227399 
781.170480  	0.228460 
783.099296  	0.226123 
785.028112  	0.221254 
786.956928  	0.215474 
788.885744  	0.210877 
790.814560  	0.207283 
792.743376  	0.204714 
794.672192  	0.203075 
796.601008  	0.202179 
798.529824  	0.200170 
800.458640  	0.196837 
802.387456  	0.193864 
804.316272  	0.192144 
806.245088  	0.191488 
808.173904  	0.190974 
810.102720  	0.190308 
812.031536  	0.190282 
813.960352  	0.190170 
815.889168  	0.190156 
817.817984  	0.190099 
819.746800  	0.189541 
821.675616  	0.189026 
823.604432  	0.188709 
825.533248  	0.187547 
827.462064  	0.186185 
829.390880  	0.185175 
831.319696  	0.184256 
833.248512  	0.182483 
835.177328  	0.180382 
837.106144  	0.178206 
839.034960  	0.175432 
840.963776  	0.172574 
842.892592  	0.170037 
844.821408  	0.167077 
846.750224  	0.164242 
848.679040  	0.161886 
850.607856  	0.159634 
852.536672  	0.157732 
854.465488  	0.155808 
856.394304  	0.154138 
858.323120  	0.152731 
860.251936  	0.151084 
862.180752  	0.149128 
864.109568  	0.146834 
866.038384  	0.144593 
867.967200  	0.142950 
869.896016  	0.141774 
871.824832  	0.140729 
873.753648  	0.140026 
875.682464  	0.139887 
877.611280  	0.139591 
879.540096  	0.139526 
881.468912  	0.140495 
883.397728  	0.141210 
885.326544  	0.141522 
887.255360  	0.141081 
889.184176  	0.139947 
891.112992  	0.138214 
893.041808  	0.136668 
894.970624  	0.134755 
896.899440  	0.132294 
898.828256  	0.129241 
900.757072  	0.126216 
902.685888  	0.123725 
904.614704  	0.122459 
906.543520  	0.122434 
908.472336  	0.123461 
910.401152  	0.125485 
912.329968  	0.128284 
914.258784  	0.131345 
916.187600  	0.133943 
918.116416  	0.135533 
920.045232  	0.136192 
921.974048  	0.135978 
923.902864  	0.135426 
925.831680  	0.134629 
927.760496  	0.133487 
929.689312  	0.132444 
931.618128  	0.132293 
933.546944  	0.132506 
935.475760  	0.132453 
937.404576  	0.132467 
939.333392  	0.133114 
941.262208  	0.134307 
943.191024  	0.136397 
945.119840  	0.139792 
947.048656  	0.143988 
948.977472  	0.149114 
950.906288  	0.155208 
952.835104  	0.161884 
954.763920  	0.168389 
956.692736  	0.174459 
958.621552  	0.179539 
960.550368  	0.182727 
962.479184  	0.184103 
964.408000  	0.182894 
966.336816  	0.179239 
968.265632  	0.173040 
970.194448  	0.165384 
972.123264  	0.156717 
974.052080  	0.147473 
975.980896  	0.138310 
977.909712  	0.129793 
979.838528  	0.122538 
981.767344  	0.116571 
983.696160  	0.112413 
985.624976  	0.110244 
987.553792  	0.109866 
989.482608  	0.111332 
991.411424  	0.114598 
993.340240  	0.119201 
995.269056  	0.124763 
997.197872  	0.130823 
999.126688  	0.136810 
1001.055504  	0.142763 
1002.984320  	0.148491 
1004.913136  	0.153783 
1006.841952  	0.158459 
1008.770768  	0.162386 
1010.699584  	0.165202 
1012.628400  	0.166805 
1014.557216  	0.167330 
1016.486032  	0.167686 
1018.414848  	0.167881 
1020.343664  	0.168176 
1022.272480  	0.167976 
1024.201296  	0.167310 
1026.130112  	0.164891 
1028.058928  	0.164138 
1029.987744  	0.166542 
1031.916560  	0.167965 
1033.845376  	0.168610 
1035.774192  	0.168711 
1037.703008  	0.169611 
1039.631824  	0.173486 
1041.560640  	0.178740 
1043.489456  	0.185616 
1045.418272  	0.194529 
1047.347088  	0.205731 
1049.275904  	0.218039 
1051.204720  	0.230131 
1053.133536  	0.240382 
1055.062352  	0.248072 
1056.991168  	0.252327 
1058.919984  	0.256585 
1060.848800  	0.259072 
1062.777616  	0.258028 
1064.706432  	0.253098 
1066.635248  	0.248505 
1068.564064  	0.247021 
1070.492880  	0.243588 
1072.421696  	0.237535 
1074.350512  	0.231969 
1076.279328  	0.227835 
1078.208144  	0.225768 
1080.136960  	0.225092 
1082.065776  	0.224866 
1083.994592  	0.224720 
1085.923408  	0.224274 
1087.852224  	0.222611 
1089.781040  	0.220768 
1091.709856  	0.218355 
1093.638672  	0.213617 
1095.567488  	0.206489 
1097.496304  	0.198600 
1099.425120  	0.190012 
1101.353936  	0.181284 
1103.282752  	0.172120 
1105.211568  	0.162814 
1107.140384  	0.153962 
1109.069200  	0.145152 
1110.998016  	0.136895 
1112.926832  	0.129383 
1114.855648  	0.121890 
1116.784464  	0.114648 
1118.713280  	0.108153 
1120.642096  	0.102013 
1122.570912  	0.096229 
1124.499728  	0.090862 
1126.428544  	0.085775 
1128.357360  	0.080844 
1130.286176  	0.076326 
1132.214992  	0.072635 
1134.143808  	0.069594 
1136.072624  	0.066774 
1138.001440  	0.064070 
1139.930256  	0.061333 
1141.859072  	0.058842 
1143.787888  	0.056410 
1145.716704  	0.054412 
1147.645520  	0.052787 
1149.574336  	0.051518 
1151.503152  	0.050507 
1153.431968  	0.050018 
1155.360784  	0.049963 
1157.289600  	0.050410 
1159.218416  	0.051179 
1161.147232  	0.052471 
1163.076048  	0.053675 
1165.004864  	0.055389 
1166.933680  	0.057102 
1168.862496  	0.058968 
1170.791312  	0.061166 
1172.720128  	0.063343 
1174.648944  	0.065273 
1176.577760  	0.067598 
1178.506576  	0.069943 
1180.435392  	0.072204 
1182.364208  	0.074172 
1184.293024  	0.076444 
1186.221840  	0.079099 
1188.150656  	0.081965 
1190.079472  	0.085234 
1192.008288  	0.088998 
1193.937104  	0.093337 
1195.865920  	0.098534 
1197.794736  	0.103951 
1199.723552  	0.109864 
1201.652368  	0.116158 
1203.581184  	0.122677 
1205.510000  	0.129094 
1207.438816  	0.135368 
1209.367632  	0.141452 
1211.296448  	0.147440 
1213.225264  	0.152731 
1215.154080  	0.156983 
1217.082896  	0.160587 
1219.011712  	0.163435 
1220.940528  	0.166042 
1222.869344  	0.168108 
1224.798160  	0.169637 
1226.726976  	0.170713 
1228.655792  	0.171299 
1230.584608  	0.171481 
1232.513424  	0.171216 
1234.442240  	0.170048 
1236.371056  	0.168248 
1238.299872  	0.165428 
1240.228688  	0.160201 
1242.157504  	0.154570 
1244.086320  	0.149974 
1246.015136  	0.143859 
1247.943952  	0.136884 
1249.872768  	0.130040 
1251.801584  	0.124033 
1253.730400  	0.118074 
1255.659216  	0.112171 
1257.588032  	0.106492 
1259.516848  	0.101105 
1261.445664  	0.096305 
1263.374480  	0.091931 
1265.303296  	0.087980 
1267.232112  	0.084915 
1269.160928  	0.082699 
1271.089744  	0.081100 
1273.018560  	0.080254 
1274.947376  	0.079923 
1276.876192  	0.079682 
1278.805008  	0.078999 
1280.733824  	0.077462 
1282.662640  	0.074865 
1284.591456  	0.071550 
1286.520272  	0.068308 
1288.449088  	0.065693 
1290.377904  	0.063533 
1292.306720  	0.061805 
1294.235536  	0.059802 
1296.164352  	0.057136 
1298.093168  	0.053873 
1300.021984  	0.050690 
1301.950800  	0.047666 
1303.879616  	0.045050 
1305.808432  	0.042916 
1307.737248  	0.041242 
1309.666064  	0.039612 
1311.594880  	0.038885 
1313.523696  	0.038528 
1315.452512  	0.038223 
1317.381328  	0.038431 
1319.310144  	0.038952 
1321.238960  	0.039426 
1323.167776  	0.039997 
1325.096592  	0.040524 
1327.025408  	0.040783 
1328.954224  	0.040474 
1330.883040  	0.039858 
1332.811856  	0.038940 
1334.740672  	0.038351 
1336.669488  	0.038021 
1338.598304  	0.038001 
1340.527120  	0.037121 
1342.455936  	0.035717 
1344.384752  	0.035417 
1346.313568  	0.035896 
1348.242384  	0.036772 
1350.171200  	0.038231 
1352.100016  	0.039924 
1354.028832  	0.041689 
1355.957648  	0.043481 
1357.886464  	0.045222 
1359.815280  	0.046915 
1361.744096  	0.048940 
1363.672912  	0.050023 
1365.601728  	0.049884 
1367.530544  	0.050074 
1369.459360  	0.049959 
1371.388176  	0.049080 
1373.316992  	0.047825 
1375.245808  	0.045453 
1377.174624  	0.043047 
1379.103440  	0.040792 
1381.032256  	0.038617 
1382.961072  	0.037021 
1384.889888  	0.036636 
1386.818704  	0.036835 
1388.747520  	0.035845 
1390.676336  	0.033722 
1392.605152  	0.030687 
1394.533968  	0.029876 
1396.462784  	0.032823 
1398.391600  	0.033903 
1400.320416  	0.033394 
1402.249232  	0.032993 
1404.178048  	0.033894 
1406.106864  	0.034819 
1408.035680  	0.036217 
1409.964496  	0.038390 
1411.893312  	0.041021 
1413.822128  	0.043494 
1415.750944  	0.046444 
1417.679760  	0.048652 
1419.608576  	0.048807 
1421.537392  	0.048213 
1423.466208  	0.048057 
1425.395024  	0.046791 
1427.323840  	0.045328 
1429.252656  	0.043961 
1431.181472  	0.042875 
1433.110288  	0.042442 
1435.039104  	0.042745 
1436.967920  	0.042996 
1438.896736  	0.043109 
1440.825552  	0.043473 
1442.754368  	0.043964 
1444.683184  	0.044029 
1446.612000  	0.044230 
1448.540816  	0.044046 
1450.469632  	0.044006 
1452.398448  	0.044348 
1454.327264  	0.045069 
1456.256080  	0.045979 
1458.184896  	0.046156 
1460.113712  	0.046087 
1462.042528  	0.046262 
1463.971344  	0.046657 
1465.900160  	0.048267 
1467.828976  	0.050271 
1469.757792  	0.052678 
1471.686608  	0.056101 
1473.615424  	0.060844 
1475.544240  	0.064073 
1477.473056  	0.066346 
1479.401872  	0.067366 
1481.330688  	0.068265 
1483.259504  	0.068382 
1485.188320  	0.068178 
1487.117136  	0.067152 
1489.045952  	0.065912 
1490.974768  	0.062686 
1492.903584  	0.059288 
1494.832400  	0.056464 
1496.761216  	0.052855 
1498.690032  	0.049320 
1500.618848  	0.047017 
1502.547664  	0.044867 
1504.476480  	0.042670 
1506.405296  	0.041635 
1508.334112  	0.041950 
1510.262928  	0.040460 
1512.191744  	0.038673 
1514.120560  	0.037727 
1516.049376  	0.038093 
1517.978192  	0.038026 
1519.907008  	0.038604 
1521.835824  	0.040324 
1523.764640  	0.042680 
1525.693456  	0.045508 
1527.622272  	0.047469 
1529.551088  	0.048214 
1531.479904  	0.048694 
1533.408720  	0.048090 
1535.337536  	0.046685 
1537.266352  	0.044755 
1539.195168  	0.041158 
1541.123984  	0.038762 
1543.052800  	0.039401 
1544.981616  	0.038855 
1546.910432  	0.037220 
1548.839248  	0.036906 
1550.768064  	0.037138 
1552.696880  	0.036545 
1554.625696  	0.037056 
1556.554512  	0.037011 
1558.483328  	0.037310 
1560.412144  	0.040866 
1562.340960  	0.043728 
1564.269776  	0.045980 
1566.198592  	0.049539 
1568.127408  	0.052561 
1570.056224  	0.057134 
1571.985040  	0.061165 
1573.913856  	0.063513 
1575.842672  	0.064768 
1577.771488  	0.066834 
1579.700304  	0.067327 
1581.629120  	0.067333 
1583.557936  	0.067513 
1585.486752  	0.068863 
1587.415568  	0.071147 
1589.344384  	0.074855 
1591.273200  	0.079179 
1593.202016  	0.084396 
1595.130832  	0.089526 
1597.059648  	0.094452 
1598.988464  	0.098251 
1600.917280  	0.101475 
1602.846096  	0.103245 
1604.774912  	0.104252 
1606.703728  	0.103961 
1608.632544  	0.103344 
1610.561360  	0.102316 
1612.490176  	0.101879 
1614.418992  	0.101298 
1616.347808  	0.101762 
1618.276624  	0.104472 
1620.205440  	0.108206 
1622.134256  	0.111669 
1624.063072  	0.117736 
1625.991888  	0.123652 
1627.920704  	0.130365 
1629.849520  	0.137733 
1631.778336  	0.144508 
1633.707152  	0.149476 
1635.635968  	0.156063 
1637.564784  	0.163310 
1639.493600  	0.168106 
1641.422416  	0.171677 
1643.351232  	0.174230 
1645.280048  	0.175091 
1647.208864  	0.176499 
1649.137680  	0.177058 
1651.066496  	0.176285 
1652.995312  	0.173593 
1654.924128  	0.173997 
1656.852944  	0.173042 
1658.781760  	0.171481 
1660.710576  	0.169764 
1662.639392  	0.167935 
1664.568208  	0.166248 
1666.497024  	0.165061 
1668.425840  	0.163148 
1670.354656  	0.161607 
1672.283472  	0.160799 
1674.212288  	0.160064 
1676.141104  	0.159583 
1678.069920  	0.160089 
1679.998736  	0.160734 
1681.927552  	0.160806 
1683.856368  	0.159768 
1685.785184  	0.160448 
1687.714000  	0.160636 
1689.642816  	0.159591 
1691.571632  	0.157488 
1693.500448  	0.155376 
1695.429264  	0.151857 
1697.358080  	0.148704 
1699.286896  	0.145294 
1701.215712  	0.140150 
1703.144528  	0.137046 
1705.073344  	0.132654 
1707.002160  	0.127290 
1708.930976  	0.122678 
1710.859792  	0.117555 
1712.788608  	0.112203 
1714.717424  	0.106466 
1716.646240  	0.099569 
1718.575056  	0.091773 
1720.503872  	0.085429 
1722.432688  	0.079993 
1724.361504  	0.073445 
1726.290320  	0.067541 
1728.219136  	0.062289 
1730.147952  	0.057564 
1732.076768  	0.052839 
1734.005584  	0.047240 
1735.934400  	0.041522 
1737.863216  	0.038510 
1739.792032  	0.033865 
1741.720848  	0.030958 
1743.649664  	0.028689 
1745.578480  	0.025905 
1747.507296  	0.023326 
1749.436112  	0.021875 
1751.364928  	0.020194 
1753.293744  	0.018558 
1755.222560  	0.017212 
1757.151376  	0.016517 
1759.080192  	0.015384 
1761.009008  	0.014785 
1762.937824  	0.013928 
1764.866640  	0.013553 
1766.795456  	0.013440 
1768.724272  	0.013347 
1770.653088  	0.011839 
1772.581904  	0.011054 
1774.510720  	0.011251 
1776.439536  	0.011699 
1778.368352  	0.011630 
1780.297168  	0.011730 
1782.225984  	0.011061 
1784.154800  	0.010933 
1786.083616  	0.010814 
1788.012432  	0.010684 
1789.941248  	0.010625 
1791.870064  	0.010718 
1793.798880  	0.009998 
1795.727696  	0.010321 
1797.656512  	0.010022 
1799.585328  	0.009777 
1801.514144  	0.009770 
1803.442960  	0.009428 
1805.371776  	0.008880 
1807.300592  	0.008950 
1809.229408  	0.008624 
1811.158224  	0.008761 
1813.087040  	0.008682 
1815.015856  	0.008491 
1816.944672  	0.008378 
1818.873488  	0.008528 
1820.802304  	0.008480 
1822.731120  	0.008811 
1824.659936  	0.008821 
1826.588752  	0.008683 
1828.517568  	0.008157 
1830.446384  	0.008522 
1832.375200  	0.008503 
1834.304016  	0.008368 
1836.232832  	0.008141 
1838.161648  	0.008466 
1840.090464  	0.008345 
1842.019280  	0.008420 
1843.948096  	0.008054 
1845.876912  	0.008335 
1847.805728  	0.008380 
1849.734544  	0.008306 
1851.663360  	0.007981 
1853.592176  	0.008034 
1855.520992  	0.007965 
1857.449808  	0.008448 
1859.378624  	0.008267 
1861.307440  	0.008048 
1863.236256  	0.007698 
1865.165072  	0.008023 
1867.093888  	0.008357 
1869.022704  	0.008966 
1870.951520  	0.008471 
1872.880336  	0.008029 
1874.809152  	0.007533 
1876.737968  	0.007708 
1878.666784  	0.007487 
1880.595600  	0.007692 
1882.524416  	0.007834 
1884.453232  	0.008034 
1886.382048  	0.007512 
1888.310864  	0.007686 
1890.239680  	0.007917 
1892.168496  	0.008001 
1894.097312  	0.007768 
1896.026128  	0.007968 
1897.954944  	0.007503 
1899.883760  	0.007288 
1901.812576  	0.007115 
1903.741392  	0.007419 
1905.670208  	0.007242 
1907.599024  	0.007284 
1909.527840  	0.007015 
1911.456656  	0.007418 
1913.385472  	0.007356 
1915.314288  	0.007911 
1917.243104  	0.008117 
1919.171920  	0.007962 
1921.100736  	0.007874 
1923.029552  	0.008651 
1924.958368  	0.007533 
1926.887184  	0.007216 
1928.816000  	0.006937 
1930.744816  	0.006851 
1932.673632  	0.006535 
1934.602448  	0.006959 
1936.531264  	0.007298 
1938.460080  	0.007560 
1940.388896  	0.007111 
1942.317712  	0.007471 
1944.246528  	0.007360 
1946.175344  	0.007845 
1948.104160  	0.006780 
1950.032976  	0.006577 
1951.961792  	0.007019 
1953.890608  	0.007616 
1955.819424  	0.006799 
1957.748240  	0.007234 
1959.677056  	0.007360 
1961.605872  	0.007987 
1963.534688  	0.007817 
1965.463504  	0.008935 
1967.392320  	0.007581 
1969.321136  	0.006824 
1971.249952  	0.007129 
1973.178768  	0.008112 
1975.107584  	0.007341 
1977.036400  	0.007533 
1978.965216  	0.009538 
1980.894032  	0.009853 
1982.822848  	0.007169 
1984.751664  	0.007059 
1986.680480  	0.007561 
1988.609296  	0.007851 
1990.538112  	0.008043 
1992.466928  	0.008834 
1994.395744  	0.008152 
1996.324560  	0.007613 
1998.253376  	0.007255 
2000.182192  	0.007397 
2002.111008  	0.007173 
2004.039824  	0.006393 
2005.968640  	0.006011 
2007.897456  	0.007924 
2009.826272  	0.007619 
2011.755088  	0.007149 
2013.683904  	0.007631 
2015.612720  	0.008082 
2017.541536  	0.007103 
2019.470352  	0.006686 
2021.399168  	0.005639 
2023.327984  	0.006640 
2025.256800  	0.007064 
2027.185616  	0.007379 
2029.114432  	0.006545 
2031.043248  	0.007932 
2032.972064  	0.007577 
2034.900880  	0.007433 
2036.829696  	0.007573 
2038.758512  	0.007412 
2040.687328  	0.007430 
2042.616144  	0.007666 
2044.544960  	0.007015 
2046.473776  	0.007871 
2048.402592  	0.007984 
2050.331408  	0.008608 
2052.260224  	0.008152 
2054.189040  	0.007748 
2056.117856  	0.006463 
2058.046672  	0.006921 
2059.975488  	0.007086 
2061.904304  	0.007195 
2063.833120  	0.008147 
2065.761936  	0.008508 
2067.690752  	0.007216 
2069.619568  	0.006711 
2071.548384  	0.006231 
2073.477200  	0.006472 
2075.406016  	0.007106 
2077.334832  	0.007377 
2079.263648  	0.006731 
2081.192464  	0.007040 
2083.121280  	0.007548 
2085.050096  	0.007569 
2086.978912  	0.007012 
2088.907728  	0.007167 
2090.836544  	0.007110 
2092.765360  	0.007050 
2094.694176  	0.007230 
2096.622992  	0.007208 
2098.551808  	0.006879 
2100.480624  	0.007004 
2102.409440  	0.006763 
2104.338256  	0.007143 
2106.267072  	0.007231 
2108.195888  	0.007427 
2110.124704  	0.007974 
2112.053520  	0.008183 
2113.982336  	0.007590 
2115.911152  	0.007692 
2117.839968  	0.007430 
2119.768784  	0.006583 
2121.697600  	0.006306 
2123.626416  	0.006476 
2125.555232  	0.006238 
2127.484048  	0.006557 
2129.412864  	0.006332 
2131.341680  	0.005764 
2133.270496  	0.005702 
2135.199312  	0.006225 
2137.128128  	0.006671 
2139.056944  	0.006989 
2140.985760  	0.006007 
2142.914576  	0.006722 
2144.843392  	0.007073 
2146.772208  	0.006714 
2148.701024  	0.006725 
2150.629840  	0.007549 
2152.558656  	0.006386 
2154.487472  	0.004492 
2156.416288  	0.003795 
2158.345104  	0.006748 
2160.273920  	0.009072 
2162.202736  	0.009020 
2164.131552  	0.008899 
2166.060368  	0.010310 
2167.989184  	0.008511 
2169.918000  	0.007527 
2171.846816  	0.007805 
2173.775632  	0.008394 
2175.704448  	0.009424 
2177.633264  	0.009809 
2179.562080  	0.008875 
2181.490896  	0.008034 
2183.419712  	0.007466 
2185.348528  	0.007793 
2187.277344  	0.007053 
2189.206160  	0.006905 
2191.134976  	0.008067 
2193.063792  	0.009334 
2194.992608  	0.009001 
2196.921424  	0.008135 
2198.850240  	0.008130 
2200.779056  	0.008492 
2202.707872  	0.008247 
2204.636688  	0.008580 
2206.565504  	0.009153 
2208.494320  	0.009141 
2210.423136  	0.007647 
2212.351952  	0.007664 
2214.280768  	0.007967 
2216.209584  	0.007985 
2218.138400  	0.007939 
2220.067216  	0.007964 
2221.996032  	0.007839 
2223.924848  	0.007587 
2225.853664  	0.007704 
2227.782480  	0.008083 
2229.711296  	0.008075 
2231.640112  	0.008141 
2233.568928  	0.008050 
2235.497744  	0.008253 
2237.426560  	0.007885 
2239.355376  	0.007625 
2241.284192  	0.007253 
2243.213008  	0.007343 
2245.141824  	0.007458 
2247.070640  	0.006984 
2248.999456  	0.006720 
2250.928272  	0.007037 
2252.857088  	0.006906 
2254.785904  	0.007045 
2256.714720  	0.007652 
2258.643536  	0.008074 
2260.572352  	0.007905 
2262.501168  	0.008075 
2264.429984  	0.007956 
2266.358800  	0.007939 
2268.287616  	0.008016 
2270.216432  	0.007953 
2272.145248  	0.007532 
2274.074064  	0.007885 
2276.002880  	0.008109 
2277.931696  	0.008591 
2279.860512  	0.008957 
2281.789328  	0.009051 
2283.718144  	0.008840 
2285.646960  	0.008965 
2287.575776  	0.009110 
2289.504592  	0.008745 
2291.433408  	0.008358 
2293.362224  	0.008350 
2295.291040  	0.008578 
2297.219856  	0.008958 
2299.148672  	0.008792 
2301.077488  	0.008591 
2303.006304  	0.008724 
2304.935120  	0.008849 
2306.863936  	0.008685 
2308.792752  	0.008549 
2310.721568  	0.008220 
2312.650384  	0.007659 
2314.579200  	0.006916 
2316.508016  	0.006391 
2318.436832  	0.005732 
2320.365648  	0.004872 
2322.294464  	0.003898 
2324.223280  	0.002861 
2326.152096  	0.001164 
2328.080912  	-0.000244 
2330.009728  	-0.001361 
2331.938544  	-0.002547 
2333.867360  	-0.003873 
2335.796176  	-0.004444 
2337.724992  	-0.004960 
2339.653808  	-0.005366 
2341.582624  	-0.005192 
2343.511440  	-0.003698 
2345.440256  	-0.001646 
2347.369072  	0.001347 
2349.297888  	0.002270 
2351.226704  	-0.000071 
2353.155520  	-0.003409 
2355.084336  	-0.006632 
2357.013152  	-0.009093 
2358.941968  	-0.010078 
2360.870784  	-0.010638 
2362.799600  	-0.010267 
2364.728416  	-0.009114 
2366.657232  	-0.007093 
2368.586048  	-0.005217 
2370.514864  	-0.002675 
2372.443680  	0.000176 
2374.372496  	0.002919 
2376.301312  	0.005101 
2378.230128  	0.006898 
2380.158944  	0.007723 
2382.087760  	0.008255 
2384.016576  	0.008606 
2385.945392  	0.008605 
2387.874208  	0.008108 
2389.803024  	0.007960 
2391.731840  	0.007995 
2393.660656  	0.008004 
2395.589472  	0.008181 
2397.518288  	0.008245 
2399.447104  	0.008085 
2401.375920  	0.007973 
2403.304736  	0.008037 
2405.233552  	0.008230 
2407.162368  	0.008276 
2409.091184  	0.008065 
2411.020000  	0.007983 
2412.948816  	0.008303 
2414.877632  	0.008342 
2416.806448  	0.008487 
2418.735264  	0.008591 
2420.664080  	0.008509 
2422.592896  	0.008371 
2424.521712  	0.008419 
2426.450528  	0.008560 
2428.379344  	0.008470 
2430.308160  	0.008393 
2432.236976  	0.008762 
2434.165792  	0.009013 
2436.094608  	0.009365 
2438.023424  	0.009594 
2439.952240  	0.009516 
2441.881056  	0.009329 
2443.809872  	0.009382 
2445.738688  	0.009390 
2447.667504  	0.009486 
2449.596320  	0.009461 
2451.525136  	0.009455 
2453.453952  	0.009512 
2455.382768  	0.009910 
2457.311584  	0.009995 
2459.240400  	0.009906 
2461.169216  	0.009827 
2463.098032  	0.009754 
2465.026848  	0.009695 
2466.955664  	0.009676 
2468.884480  	0.009600 
2470.813296  	0.009769 
2472.742112  	0.009739 
2474.670928  	0.009833 
2476.599744  	0.009962 
2478.528560  	0.009983 
2480.457376  	0.010105 
2482.386192  	0.010140 
2484.315008  	0.010035 
2486.243824  	0.010125 
2488.172640  	0.010061 
2490.101456  	0.010148 
2492.030272  	0.010294 
2493.959088  	0.010382 
2495.887904  	0.010364 
2497.816720  	0.010359 
2499.745536  	0.010402 
2501.674352  	0.010594 
2503.603168  	0.010573 
2505.531984  	0.010490 
2507.460800  	0.010533 
2509.389616  	0.010538 
2511.318432  	0.010400 
2513.247248  	0.010581 
2515.176064  	0.010632 
2517.104880  	0.011073 
2519.033696  	0.011254 
2520.962512  	0.011065 
2522.891328  	0.011152 
2524.820144  	0.011243 
2526.748960  	0.011360 
2528.677776  	0.011514 
2530.606592  	0.011254 
2532.535408  	0.011145 
2534.464224  	0.011533 
2536.393040  	0.011778 
2538.321856  	0.011477 
2540.250672  	0.011558 
2542.179488  	0.011778 
2544.108304  	0.011983 
2546.037120  	0.011832 
2547.965936  	0.011911 
2549.894752  	0.012141 
2551.823568  	0.012186 
2553.752384  	0.012239 
2555.681200  	0.012583 
2557.610016  	0.012693 
2559.538832  	0.012666 
2561.467648  	0.012551 
2563.396464  	0.012720 
2565.325280  	0.012888 
2567.254096  	0.012872 
2569.182912  	0.012845 
2571.111728  	0.012747 
2573.040544  	0.012493 
2574.969360  	0.012467 
2576.898176  	0.012846 
2578.826992  	0.013271 
2580.755808  	0.013162 
2582.684624  	0.012940 
2584.613440  	0.012941 
2586.542256  	0.013241 
2588.471072  	0.013387 
2590.399888  	0.013305 
2592.328704  	0.013378 
2594.257520  	0.013663 
2596.186336  	0.013964 
2598.115152  	0.013983 
2600.043968  	0.013784 
2601.972784  	0.013828 
2603.901600  	0.014001 
2605.830416  	0.014087 
2607.759232  	0.014019 
2609.688048  	0.014203 
2611.616864  	0.014374 
2613.545680  	0.014467 
2615.474496  	0.014466 
2617.403312  	0.014496 
2619.332128  	0.014585 
2621.260944  	0.014735 
2623.189760  	0.014805 
2625.118576  	0.014934 
2627.047392  	0.015110 
2628.976208  	0.015434 
2630.905024  	0.015569 
2632.833840  	0.015649 
2634.762656  	0.015646 
2636.691472  	0.015639 
2638.620288  	0.015746 
2640.549104  	0.015915 
2642.477920  	0.015980 
2644.406736  	0.015995 
2646.335552  	0.016217 
2648.264368  	0.016397 
2650.193184  	0.016431 
2652.122000  	0.016542 
2654.050816  	0.016650 
2655.979632  	0.016660 
2657.908448  	0.016757 
2659.837264  	0.016874 
2661.766080  	0.016840 
2663.694896  	0.016773 
2665.623712  	0.016792 
2667.552528  	0.016890 
2669.481344  	0.017053 
2671.410160  	0.017273 
2673.338976  	0.017370 
2675.267792  	0.017484 
2677.196608  	0.017575 
2679.125424  	0.017687 
2681.054240  	0.017654 
2682.983056  	0.017741 
2684.911872  	0.017981 
2686.840688  	0.018082 
2688.769504  	0.018150 
2690.698320  	0.018238 
2692.627136  	0.018340 
2694.555952  	0.018389 
2696.484768  	0.018384 
2698.413584  	0.018566 
2700.342400  	0.018670 
2702.271216  	0.018791 
2704.200032  	0.018954 
2706.128848  	0.019051 
2708.057664  	0.019147 
2709.986480  	0.019271 
2711.915296  	0.019326 
2713.844112  	0.019348 
2715.772928  	0.019467 
2717.701744  	0.019631 
2719.630560  	0.019669 
2721.559376  	0.019718 
2723.488192  	0.019861 
2725.417008  	0.020072 
2727.345824  	0.020210 
2729.274640  	0.020187 
2731.203456  	0.020203 
2733.132272  	0.020352 
2735.061088  	0.020505 
2736.989904  	0.020568 
2738.918720  	0.020517 
2740.847536  	0.020516 
2742.776352  	0.020634 
2744.705168  	0.020784 
2746.633984  	0.020808 
2748.562800  	0.020905 
2750.491616  	0.021046 
2752.420432  	0.021114 
2754.349248  	0.021138 
2756.278064  	0.021143 
2758.206880  	0.021165 
2760.135696  	0.021315 
2762.064512  	0.021268 
2763.993328  	0.021211 
2765.922144  	0.021324 
2767.850960  	0.021409 
2769.779776  	0.021393 
2771.708592  	0.021396 
2773.637408  	0.021342 
2775.566224  	0.021386 
2777.495040  	0.021387 
2779.423856  	0.021464 
2781.352672  	0.021600 
2783.281488  	0.021716 
2785.210304  	0.021704 
2787.139120  	0.021744 
2789.067936  	0.021896 
2790.996752  	0.021889 
2792.925568  	0.021912 
2794.854384  	0.022070 
2796.783200  	0.022103 
2798.712016  	0.021983 
2800.640832  	0.021963 
2802.569648  	0.022130 
2804.498464  	0.022307 
2806.427280  	0.022349 
2808.356096  	0.022326 
2810.284912  	0.022404 
2812.213728  	0.022439 
2814.142544  	0.022424 
2816.071360  	0.022447 
2818.000176  	0.022389 
2819.928992  	0.022233 
2821.857808  	0.022184 
2823.786624  	0.022198 
2825.715440  	0.022250 
2827.644256  	0.022156 
2829.573072  	0.022025 
2831.501888  	0.021699 
2833.430704  	0.021429 
2835.359520  	0.021226 
2837.288336  	0.020962 
2839.217152  	0.020751 
2841.145968  	0.020568 
2843.074784  	0.020348 
2845.003600  	0.020198 
2846.932416  	0.020204 
2848.861232  	0.020163 
2850.790048  	0.019868 
2852.718864  	0.019325 
2854.647680  	0.018559 
2856.576496  	0.018034 
2858.505312  	0.017458 
2860.434128  	0.016700 
2862.362944  	0.015965 
2864.291760  	0.015213 
2866.220576  	0.014502 
2868.149392  	0.014275 
2870.078208  	0.014359 
2872.007024  	0.014349 
2873.935840  	0.014311 
2875.864656  	0.014291 
2877.793472  	0.014282 
2879.722288  	0.014082 
2881.651104  	0.013575 
2883.579920  	0.013160 
2885.508736  	0.013256 
2887.437552  	0.013597 
2889.366368  	0.013684 
2891.295184  	0.013396 
2893.224000  	0.013146 
2895.152816  	0.013321 
2897.081632  	0.013067 
2899.010448  	0.011583 
2900.939264  	0.010242 
2902.868080  	0.011332 
2904.796896  	0.012706 
2906.725712  	0.013375 
2908.654528  	0.013855 
2910.583344  	0.014240 
2912.512160  	0.015218 
2914.440976  	0.016656 
2916.369792  	0.017685 
2918.298608  	0.018248 
2920.227424  	0.018611 
2922.156240  	0.019140 
2924.085056  	0.019771 
2926.013872  	0.020401 
2927.942688  	0.021147 
2929.871504  	0.022055 
2931.800320  	0.022742 
2933.729136  	0.023119 
2935.657952  	0.023391 
2937.586768  	0.023794 
2939.515584  	0.023905 
2941.444400  	0.023878 
2943.373216  	0.023939 
2945.302032  	0.023988 
2947.230848  	0.023960 
2949.159664  	0.023670 
2951.088480  	0.023061 
2953.017296  	0.022523 
2954.946112  	0.021828 
2956.874928  	0.021048 
2958.803744  	0.020398 
2960.732560  	0.019863 
2962.661376  	0.019233 
2964.590192  	0.018208 
2966.519008  	0.017009 
2968.447824  	0.015948 
2970.376640  	0.015201 
2972.305456  	0.014680 
2974.234272  	0.014727 
2976.163088  	0.014799 
2978.091904  	0.014683 
2980.020720  	0.014627 
2981.949536  	0.014716 
2983.878352  	0.014320 
2985.807168  	0.013376 
2987.735984  	0.012652 
2989.664800  	0.013225 
2991.593616  	0.016094 
2993.522432  	0.017652 
2995.451248  	0.017964 
2997.380064  	0.018740 
2999.308880  	0.019714 
3001.237696  	0.020752 
3003.166512  	0.021888 
3005.095328  	0.023181 
3007.024144  	0.024515 
3008.952960  	0.025680 
3010.881776  	0.027058 
3012.810592  	0.028340 
3014.739408  	0.029396 
3016.668224  	0.030420 
3018.597040  	0.031286 
3020.525856  	0.032116 
3022.454672  	0.033035 
3024.383488  	0.034011 
3026.312304  	0.034875 
3028.241120  	0.035591 
3030.169936  	0.036146 
3032.098752  	0.036878 
3034.027568  	0.037367 
3035.956384  	0.037706 
3037.885200  	0.038289 
3039.814016  	0.038966 
3041.742832  	0.039701 
3043.671648  	0.040208 
3045.600464  	0.040421 
3047.529280  	0.040693 
3049.458096  	0.041061 
3051.386912  	0.041354 
3053.315728  	0.041673 
3055.244544  	0.041991 
3057.173360  	0.042505 
3059.102176  	0.042955 
3061.030992  	0.043308 
3062.959808  	0.043606 
3064.888624  	0.044001 
3066.817440  	0.044469 
3068.746256  	0.044831 
3070.675072  	0.045142 
3072.603888  	0.045689 
3074.532704  	0.046237 
3076.461520  	0.046585 
3078.390336  	0.046774 
3080.319152  	0.047124 
3082.247968  	0.047621 
3084.176784  	0.048106 
3086.105600  	0.048442 
3088.034416  	0.048862 
3089.963232  	0.049215 
3091.892048  	0.049595 
3093.820864  	0.050032 
3095.749680  	0.050394 
3097.678496  	0.050614 
3099.607312  	0.050947 
3101.536128  	0.051342 
3103.464944  	0.051693 
3105.393760  	0.052030 
3107.322576  	0.052500 
3109.251392  	0.052919 
3111.180208  	0.053253 
3113.109024  	0.053462 
3115.037840  	0.053618 
3116.966656  	0.053952 
3118.895472  	0.054321 
3120.824288  	0.054556 
3122.753104  	0.054875 
3124.681920  	0.055246 
3126.610736  	0.055446 
3128.539552  	0.055571 
3130.468368  	0.055675 
3132.397184  	0.055862 
3134.326000  	0.056144 
3136.254816  	0.056343 
3138.183632  	0.056542 
3140.112448  	0.056799 
3142.041264  	0.057071 
3143.970080  	0.057358 
3145.898896  	0.057532 
3147.827712  	0.057774 
3149.756528  	0.058142 
3151.685344  	0.058644 
3153.614160  	0.059053 
3155.542976  	0.059243 
3157.471792  	0.059401 
3159.400608  	0.059819 
3161.329424  	0.060247 
3163.258240  	0.060556 
3165.187056  	0.060786 
3167.115872  	0.060943 
3169.044688  	0.061152 
3170.973504  	0.061365 
3172.902320  	0.061491 
3174.831136  	0.061713 
3176.759952  	0.062058 
3178.688768  	0.062355 
3180.617584  	0.062271 
3182.546400  	0.062173 
3184.475216  	0.062440 
3186.404032  	0.062568 
3188.332848  	0.062513 
3190.261664  	0.062794 
3192.190480  	0.063013 
3194.119296  	0.062713 
3196.048112  	0.062578 
3197.976928  	0.062824 
3199.905744  	0.062808 
3201.834560  	0.062794 
3203.763376  	0.062774 
3205.692192  	0.062795 
3207.621008  	0.062810 
3209.549824  	0.062606 
3211.478640  	0.062425 
3213.407456  	0.062204 
3215.336272  	0.062186 
3217.265088  	0.062051 
3219.193904  	0.061651 
3221.122720  	0.061364 
3223.051536  	0.061196 
3224.980352  	0.061068 
3226.909168  	0.060878 
3228.837984  	0.060631 
3230.766800  	0.060585 
3232.695616  	0.060524 
3234.624432  	0.060497 
3236.553248  	0.060515 
3238.482064  	0.060465 
3240.410880  	0.060184 
3242.339696  	0.060024 
3244.268512  	0.060119 
3246.197328  	0.060160 
3248.126144  	0.060155 
3250.054960  	0.060297 
3251.983776  	0.060261 
3253.912592  	0.060316 
3255.841408  	0.060551 
3257.770224  	0.060663 
3259.699040  	0.060612 
3261.627856  	0.060712 
3263.556672  	0.060799 
3265.485488  	0.060783 
3267.414304  	0.060994 
3269.343120  	0.061200 
3271.271936  	0.061376 
3273.200752  	0.061641 
3275.129568  	0.061828 
3277.058384  	0.061851 
3278.987200  	0.061899 
3280.916016  	0.062059 
3282.844832  	0.062118 
3284.773648  	0.062146 
3286.702464  	0.062333 
3288.631280  	0.062602 
3290.560096  	0.062756 
3292.488912  	0.062950 
3294.417728  	0.063009 
3296.346544  	0.063091 
3298.275360  	0.063248 
3300.204176  	0.063575 
3302.132992  	0.063980 
3304.061808  	0.064190 
3305.990624  	0.064423 
3307.919440  	0.064581 
3309.848256  	0.064506 
3311.777072  	0.064497 
3313.705888  	0.064864 
3315.634704  	0.065327 
3317.563520  	0.065559 
3319.492336  	0.065764 
3321.421152  	0.065857 
3323.349968  	0.066000 
3325.278784  	0.066290 
3327.207600  	0.066440 
3329.136416  	0.066392 
3331.065232  	0.066256 
3332.994048  	0.066447 
3334.922864  	0.066519 
3336.851680  	0.066385 
3338.780496  	0.066320 
3340.709312  	0.066253 
3342.638128  	0.066154 
3344.566944  	0.066054 
3346.495760  	0.065808 
3348.424576  	0.065601 
3350.353392  	0.065368 
3352.282208  	0.065016 
3354.211024  	0.064933 
3356.139840  	0.064963 
3358.068656  	0.064552 
3359.997472  	0.064165 
3361.926288  	0.063931 
3363.855104  	0.063408 
3365.783920  	0.063207 
3367.712736  	0.063172 
3369.641552  	0.062666 
3371.570368  	0.062145 
3373.499184  	0.061918 
3375.428000  	0.061634 
3377.356816  	0.061258 
3379.285632  	0.060970 
3381.214448  	0.060841 
3383.143264  	0.060656 
3385.072080  	0.060458 
3387.000896  	0.060109 
3388.929712  	0.059689 
3390.858528  	0.059413 
3392.787344  	0.059141 
3394.716160  	0.058647 
3396.644976  	0.058298 
3398.573792  	0.057965 
3400.502608  	0.057422 
3402.431424  	0.057010 
3404.360240  	0.056702 
3406.289056  	0.056409 
3408.217872  	0.056083 
3410.146688  	0.055711 
3412.075504  	0.055782 
3414.004320  	0.055675 
3415.933136  	0.055062 
3417.861952  	0.054470 
3419.790768  	0.054259 
3421.719584  	0.054001 
3423.648400  	0.053437 
3425.577216  	0.052961 
3427.506032  	0.052783 
3429.434848  	0.052408 
3431.363664  	0.052029 
3433.292480  	0.051722 
3435.221296  	0.051431 
3437.150112  	0.051201 
3439.078928  	0.050960 
3441.007744  	0.050613 
3442.936560  	0.050265 
3444.865376  	0.049691 
3446.794192  	0.049235 
3448.723008  	0.048950 
3450.651824  	0.048496 
3452.580640  	0.047899 
3454.509456  	0.047421 
3456.438272  	0.046964 
3458.367088  	0.046601 
3460.295904  	0.046263 
3462.224720  	0.045652 
3464.153536  	0.044984 
3466.082352  	0.044605 
3468.011168  	0.044167 
3469.939984  	0.043607 
3471.868800  	0.043106 
3473.797616  	0.042701 
3475.726432  	0.042193 
3477.655248  	0.041703 
3479.584064  	0.041428 
3481.512880  	0.041154 
3483.441696  	0.040582 
3485.370512  	0.039823 
3487.299328  	0.039358 
3489.228144  	0.038805 
3491.156960  	0.038011 
3493.085776  	0.037498 
3495.014592  	0.037199 
3496.943408  	0.036849 
3498.872224  	0.036475 
3500.801040  	0.036430 
3502.729856  	0.036160 
3504.658672  	0.035353 
3506.587488  	0.034473 
3508.516304  	0.034292 
3510.445120  	0.034173 
3512.373936  	0.033683 
3514.302752  	0.033104 
3516.231568  	0.032526 
3518.160384  	0.032100 
3520.089200  	0.031928 
3522.018016  	0.032117 
3523.946832  	0.032164 
3525.875648  	0.031517 
3527.804464  	0.030765 
3529.733280  	0.030300 
3531.662096  	0.029896 
3533.590912  	0.029453 
3535.519728  	0.029281 
3537.448544  	0.029065 
3539.377360  	0.028555 
3541.306176  	0.028108 
3543.234992  	0.028018 
3545.163808  	0.028470 
3547.092624  	0.028106 
3549.021440  	0.026717 
3550.950256  	0.025967 
3552.879072  	0.026040 
3554.807888  	0.025679 
3556.736704  	0.024986 
3558.665520  	0.024803 
3560.594336  	0.024891 
3562.523152  	0.024524 
3564.451968  	0.024570 
3566.380784  	0.025192 
3568.309600  	0.024674 
3570.238416  	0.023175 
3572.167232  	0.022035 
3574.096048  	0.021438 
3576.024864  	0.021018 
3577.953680  	0.020584 
3579.882496  	0.020333 
3581.811312  	0.020057 
3583.740128  	0.019683 
3585.668944  	0.019746 
3587.597760  	0.020354 
3589.526576  	0.019049 
3591.455392  	0.017416 
3593.384208  	0.017243 
3595.313024  	0.017064 
3597.241840  	0.016305 
3599.170656  	0.015389 
3601.099472  	0.014924 
3603.028288  	0.014543 
3604.957104  	0.013849 
3606.885920  	0.013601 
3608.814736  	0.013698 
3610.743552  	0.012889 
3612.672368  	0.012122 
3614.601184  	0.011509 
3616.530000  	0.010488 
3618.458816  	0.009825 
3620.387632  	0.009328 
3622.316448  	0.008547 
3624.245264  	0.008056 
3626.174080  	0.007480 
3628.102896  	0.006843 
3630.031712  	0.006983 
3631.960528  	0.006301 
3633.889344  	0.005370 
3635.818160  	0.004375 
3637.746976  	0.003585 
3639.675792  	0.003290 
3641.604608  	0.002830 
3643.533424  	0.002032 
3645.462240  	0.001219 
3647.391056  	0.000576 
3649.319872  	-0.000134 
3651.248688  	-0.000097 
3653.177504  	-0.001113 
3655.106320  	-0.002417 
3657.035136  	-0.002917 
3658.963952  	-0.003405 
3660.892768  	-0.004167 
3662.821584  	-0.004700 
3664.750400  	-0.004891 
3666.679216  	-0.005351 
3668.608032  	-0.006224 
3670.536848  	-0.006186 
3672.465664  	-0.005992 
3674.394480  	-0.007532 
3676.323296  	-0.007152 
3678.252112  	-0.005459 
3680.180928  	-0.005100 
3682.109744  	-0.005603 
3684.038560  	-0.006092 
3685.967376  	-0.006697 
3687.896192  	-0.007414 
3689.825008  	-0.007166 
3691.753824  	-0.006325 
3693.682640  	-0.005788 
3695.611456  	-0.005619 
3697.540272  	-0.005213 
3699.469088  	-0.005024 
3701.397904  	-0.004394 
3703.326720  	-0.003601 
3705.255536  	-0.003552 
3707.184352  	-0.003982 
3709.113168  	-0.004202 
3711.041984  	-0.003775 
3712.970800  	-0.002944 
3714.899616  	-0.002310 
3716.828432  	-0.002548 
3718.757248  	-0.002860 
3720.686064  	-0.002839 
3722.614880  	-0.002289 
3724.543696  	-0.001803 
3726.472512  	-0.001723 
3728.401328  	-0.002607 
3730.330144  	-0.003985 
3732.258960  	-0.004260 
3734.187776  	-0.002472 
3736.116592  	-0.000908 
3738.045408  	-0.001958 
3739.974224  	-0.002526 
3741.903040  	-0.002579 
3743.831856  	-0.002404 
3745.760672  	-0.001703 
3747.689488  	-0.002862 
3749.618304  	-0.004042 
3751.547120  	-0.003426 
3753.475936  	-0.001983 
3755.404752  	-0.002107 
3757.333568  	-0.002452 
3759.262384  	-0.002364 
3761.191200  	-0.001894 
3763.120016  	-0.001999 
3765.048832  	-0.002161 
3766.977648  	-0.002189 
3768.906464  	-0.002641 
3770.835280  	-0.002141 
3772.764096  	-0.001743 
3774.692912  	-0.001956 
3776.621728  	-0.002392 
3778.550544  	-0.002567 
3780.479360  	-0.002264 
3782.408176  	-0.002196 
3784.336992  	-0.002264 
3786.265808  	-0.002154 
3788.194624  	-0.002173 
3790.123440  	-0.002227 
3792.052256  	-0.002198 
3793.981072  	-0.002448 
3795.909888  	-0.002675 
3797.838704  	-0.002400 
3799.767520  	-0.003301 
3801.696336  	-0.003582 
3803.625152  	-0.002804 
3805.553968  	-0.003333 
3807.482784  	-0.003028 
3809.411600  	-0.002252 
3811.340416  	-0.002104 
3813.269232  	-0.002465 
3815.198048  	-0.003417 
3817.126864  	-0.003149 
3819.055680  	-0.003387 
3820.984496  	-0.003515 
3822.913312  	-0.002313 
3824.842128  	-0.002419 
3826.770944  	-0.002543 
3828.699760  	-0.002491 
3830.628576  	-0.002885 
3832.557392  	-0.002833 
3834.486208  	-0.003120 
3836.415024  	-0.003632 
3838.343840  	-0.003257 
3840.272656  	-0.002582 
3842.201472  	-0.002556 
3844.130288  	-0.002609 
3846.059104  	-0.002341 
3847.987920  	-0.002330 
3849.916736  	-0.002691 
3851.845552  	-0.003606 
3853.774368  	-0.003002 
3855.703184  	-0.001999 
3857.632000  	-0.002184 
3859.560816  	-0.002601 
3861.489632  	-0.002702 
3863.418448  	-0.002570 
3865.347264  	-0.002155 
3867.276080  	-0.002304 
3869.204896  	-0.002384 
3871.133712  	-0.001503 
3873.062528  	-0.001845 
3874.991344  	-0.002005 
3876.920160  	-0.002374 
3878.848976  	-0.002407 
3880.777792  	-0.001677 
3882.706608  	-0.001661 
3884.635424  	-0.002121 
3886.564240  	-0.001843 
3888.493056  	-0.002223 
3890.421872  	-0.002360 
3892.350688  	-0.001774 
3894.279504  	-0.001909 
3896.208320  	-0.002221 
3898.137136  	-0.001993 
3900.065952  	-0.001544 
3901.994768  	-0.001469 
3903.923584  	-0.001282 
3905.852400  	-0.001342 
3907.781216  	-0.001913 
3909.710032  	-0.002374 
3911.638848  	-0.002391 
3913.567664  	-0.002252 
3915.496480  	-0.001809 
3917.425296  	-0.001126 
3919.354112  	-0.001314 
3921.282928  	-0.001530 
3923.211744  	-0.001489 
3925.140560  	-0.001316 
3927.069376  	-0.001773 
3928.998192  	-0.001932 
3930.927008  	-0.001230 
3932.855824  	-0.000785 
3934.784640  	-0.001519 
3936.713456  	-0.001910 
3938.642272  	-0.001808 
3940.571088  	-0.001793 
3942.499904  	-0.001100 
3944.428720  	-0.001159 
3946.357536  	-0.001774 
3948.286352  	-0.001480 
3950.215168  	-0.001585 
3952.143984  	-0.002082 
3954.072800  	-0.002296 
3956.001616  	-0.002198 
3957.930432  	-0.002001 
3959.859248  	-0.001826 
3961.788064  	-0.001744 
3963.716880  	-0.001773 
3965.645696  	-0.001973 
3967.574512  	-0.001876 
3969.503328  	-0.001835 
3971.432144  	-0.001949 
3973.360960  	-0.001920 
3975.289776  	-0.001730 
3977.218592  	-0.001707 
3979.147408  	-0.001925 
3981.076224  	-0.002062 
3983.005040  	-0.002097 
3984.933856  	-0.002106 
3986.862672  	-0.002190 
3988.791488  	-0.002165 
3990.720304  	-0.002024 
3992.649120  	-0.002009 
3994.577936  	-0.002071 
3996.506752  	-0.002200 
3998.435568  	-0.002179 
4000.364384  	-0.002113 