##TITLE=No Description
##DATA TYPE=INFRARED SPECTRUM
##XUNITS=1/CM
##YUNITS=Abs
399.264912  	0.615865 
401.193728  	0.601182 
403.122544  	0.583329 
405.051360  	0.582614 
406.980176  	0.593948 
408.908992  	0.572870 
410.837808  	0.562371 
412.766624  	0.562827 
414.695440  	0.568559 
416.624256  	0.564300 
418.553072  	0.558385 
420.481888  	0.547771 
422.410704  	0.554933 
424.339520  	0.550870 
426.268336  	0.550963 
428.197152  	0.535037 
430.125968  	0.527210 
432.054784  	0.521086 
433.983600  	0.525759 
435.912416  	0.521586 
437.841232  	0.519273 
439.770048  	0.516553 
441.698864  	0.516932 
443.627680  	0.518802 
445.556496  	0.520689 
447.485312  	0.517672 
449.414128  	0.516363 
451.342944  	0.512020 
453.271760  	0.509225 
455.200576  	0.502074 
457.129392  	0.498484 
459.058208  	0.501187 
460.987024  	0.508750 
462.915840  	0.507211 
464.844656  	0.507722 
466.773472  	0.507362 
468.702288  	0.509483 
470.631104  	0.508030 
472.559920  	0.508411 
474.488736  	0.503628 
476.417552  	0.503690 
478.346368  	0.499935 
480.275184  	0.498492 
482.204000  	0.497580 
484.132816  	0.501410 
486.061632  	0.496270 
487.990448  	0.493931 
489.919264  	0.494789 
491.848080  	0.498221 
493.776896  	0.493888 
495.705712  	0.494479 
497.634528  	0.495232 
499.563344  	0.493758 
501.492160  	0.491788 
503.420976  	0.489657 
505.349792  	0.486940 
507.278608  	0.489404 
509.207424  	0.489040 
511.136240  	0.487087 
513.065056  	0.486239 
514.993872  	0.487602 
516.922688  	0.486613 
518.851504  	0.488012 
520.780320  	0.487129 
522.709136  	0.487424 
524.637952  	0.485654 
526.566768  	0.485528 
528.495584  	0.483151 
530.424400  	0.481230 
532.353216  	0.478208 
534.282032  	0.474862 
536.210848  	0.467841 
538.139664  	0.463101 
540.068480  	0.459685 
541.997296  	0.458072 
543.926112  	0.454667 
545.854928  	0.452997 
547.783744  	0.449332 
549.712560  	0.445651 
551.641376  	0.440778 
553.570192  	0.437550 
555.499008  	0.433667 
557.427824  	0.431607 
559.356640  	0.428521 
561.285456  	0.425353 
563.214272  	0.421894 
565.143088  	0.418884 
567.071904  	0.415120 
569.000720  	0.411527 
570.929536  	0.408346 
572.858352  	0.406490 
574.787168  	0.404122 
576.715984  	0.401496 
578.644800  	0.397564 
580.573616  	0.393570 
582.502432  	0.388878 
584.431248  	0.386861 
586.360064  	0.384378 
588.288880  	0.382091 
590.217696  	0.379789 
592.146512  	0.378509 
594.075328  	0.375669 
596.004144  	0.373164 
597.932960  	0.371353 
599.861776  	0.370607 
601.790592  	0.369483 
603.719408  	0.367685 
605.648224  	0.366007 
607.577040  	0.365319 
609.505856  	0.364071 
611.434672  	0.362897 
613.363488  	0.360600 
615.292304  	0.359242 
617.221120  	0.357845 
619.149936  	0.356027 
621.078752  	0.353429 
623.007568  	0.351707 
624.936384  	0.349972 
626.865200  	0.348673 
628.794016  	0.347235 
630.722832  	0.346087 
632.651648  	0.344856 
634.580464  	0.344862 
636.509280  	0.345058 
638.438096  	0.344039 
640.366912  	0.342865 
642.295728  	0.341406 
644.224544  	0.339032 
646.153360  	0.336385 
648.082176  	0.332692 
650.010992  	0.329169 
651.939808  	0.325629 
653.868624  	0.322472 
655.797440  	0.318690 
657.726256  	0.315292 
659.655072  	0.311789 
661.583888  	0.308582 
663.512704  	0.305550 
665.441520  	0.302421 
667.370336  	0.296493 
669.299152  	0.291991 
671.227968  	0.292102 
673.156784  	0.290483 
675.085600  	0.287881 
677.014416  	0.285996 
678.943232  	0.284479 
680.872048  	0.282603 
682.800864  	0.280720 
684.729680  	0.279608 
686.658496  	0.277883 
688.587312  	0.275856 
690.516128  	0.274021 
692.444944  	0.272799 
694.373760  	0.271388 
696.302576  	0.269893 
698.231392  	0.267879 
700.160208  	0.265190 
702.089024  	0.262476 
704.017840  	0.260889 
705.946656  	0.258678 
707.875472  	0.255952 
709.804288  	0.253619 
711.733104  	0.251990 
713.661920  	0.250380 
715.590736  	0.249538 
717.519552  	0.248850 
719.448368  	0.248942 
721.377184  	0.249667 
723.306000  	0.250147 
725.234816  	0.249926 
727.163632  	0.248766 
729.092448  	0.246025 
731.021264  	0.243584 
732.950080  	0.241252 
734.878896  	0.238440 
736.807712  	0.235777 
738.736528  	0.233827 
740.665344  	0.232162 
742.594160  	0.230765 
744.522976  	0.229386 
746.451792  	0.228057 
748.380608  	0.226998 
750.309424  	0.225884 
752.238240  	0.224982 
754.167056  	0.224746 
756.095872  	0.224089 
758.024688  	0.222839 
759.953504  	0.221810 
761.882320  	0.221645 
763.811136  	0.221841 
765.739952  	0.221042 
767.668768  	0.219282 
769.597584  	0.217873 
771.526400  	0.217258 
773.455216  	0.218472 
775.384032  	0.220470 
777.312848  	0.223194 
779.241664  	0.226162 
781.170480  	0.226970 
783.099296  	0.224390 
785.028112  	0.219745 
786.956928  	0.214207 
788.885744  	0.209196 
790.814560  	0.205634 
792.743376  	0.203419 
794.672192  	0.201866 
796.601008  	0.200580 
798.529824  	0.198758 
800.458640  	0.195871 
802.387456  	0.192934 
804.316272  	0.191167 
806.245088  	0.189907 
808.173904  	0.189264 
810.102720  	0.189047 
812.031536  	0.188880 
813.960352  	0.188348 
815.889168  	0.187868 
817.817984  	0.187512 
819.746800  	0.186960 
821.675616  	0.186075 
823.604432  	0.185434 
825.533248  	0.184730 
827.462064  	0.183641 
829.390880  	0.182521 
831.319696  	0.181154 
833.248512  	0.179351 
835.177328  	0.177353 
837.106144  	0.175058 
839.034960  	0.172327 
840.963776  	0.169364 
842.892592  	0.166869 
844.821408  	0.164444 
846.750224  	0.161589 
848.679040  	0.159123 
850.607856  	0.156838 
852.536672  	0.155002 
854.465488  	0.153197 
856.394304  	0.151291 
858.323120  	0.149648 
860.251936  	0.147790 
862.180752  	0.145431 
864.109568  	0.143229 
866.038384  	0.141172 
867.967200  	0.139452 
869.896016  	0.137997 
871.824832  	0.136685 
873.753648  	0.135836 
875.682464  	0.135835 
877.611280  	0.135235 
879.540096  	0.134707 
881.468912  	0.135635 
883.397728  	0.136101 
885.326544  	0.136343 
887.255360  	0.136056 
889.184176  	0.134941 
891.112992  	0.132949 
893.041808  	0.131525 
894.970624  	0.129986 
896.899440  	0.127502 
898.828256  	0.124450 
900.757072  	0.121750 
902.685888  	0.119678 
904.614704  	0.118650 
906.543520  	0.118662 
908.472336  	0.119946 
910.401152  	0.122000 
912.329968  	0.124592 
914.258784  	0.127337 
916.187600  	0.129801 
918.116416  	0.131599 
920.045232  	0.132248 
921.974048  	0.131918 
923.902864  	0.131173 
925.831680  	0.130414 
927.760496  	0.129553 
929.689312  	0.128567 
931.618128  	0.128196 
933.546944  	0.128185 
935.475760  	0.128242 
937.404576  	0.128284 
939.333392  	0.128830 
941.262208  	0.129861 
943.191024  	0.131838 
945.119840  	0.134911 
947.048656  	0.138735 
948.977472  	0.143686 
950.906288  	0.149386 
952.835104  	0.155458 
954.763920  	0.161502 
956.692736  	0.167038 
958.621552  	0.171555 
960.550368  	0.174481 
962.479184  	0.175487 
964.408000  	0.174061 
966.336816  	0.170589 
968.265632  	0.164884 
970.194448  	0.157787 
972.123264  	0.149756 
974.052080  	0.141171 
975.980896  	0.132521 
977.909712  	0.124507 
979.838528  	0.117682 
981.767344  	0.112092 
983.696160  	0.108099 
985.624976  	0.105797 
987.553792  	0.105172 
989.482608  	0.106355 
991.411424  	0.109171 
993.340240  	0.113358 
995.269056  	0.118477 
997.197872  	0.123858 
999.126688  	0.129098 
1001.055504  	0.134240 
1002.984320  	0.139178 
1004.913136  	0.143626 
1006.841952  	0.147479 
1008.770768  	0.150696 
1010.699584  	0.153013 
1012.628400  	0.154156 
1014.557216  	0.154380 
1016.486032  	0.154602 
1018.414848  	0.154532 
1020.343664  	0.154542 
1022.272480  	0.154430 
1024.201296  	0.153594 
1026.130112  	0.149978 
1028.058928  	0.148605 
1029.987744  	0.151769 
1031.916560  	0.153165 
1033.845376  	0.152879 
1035.774192  	0.151687 
1037.703008  	0.151561 
1039.631824  	0.154620 
1041.560640  	0.158813 
1043.489456  	0.164571 
1045.418272  	0.172723 
1047.347088  	0.182776 
1049.275904  	0.193572 
1051.204720  	0.204042 
1053.133536  	0.213514 
1055.062352  	0.220961 
1056.991168  	0.225167 
1058.919984  	0.230026 
1060.848800  	0.233805 
1062.777616  	0.232888 
1064.706432  	0.226547 
1066.635248  	0.221509 
1068.564064  	0.221765 
1070.492880  	0.219330 
1072.421696  	0.213082 
1074.350512  	0.207602 
1076.279328  	0.203971 
1078.208144  	0.202062 
1080.136960  	0.201964 
1082.065776  	0.202353 
1083.994592  	0.202925 
1085.923408  	0.203401 
1087.852224  	0.202978 
1089.781040  	0.202204 
1091.709856  	0.200978 
1093.638672  	0.197162 
1095.567488  	0.190849 
1097.496304  	0.183852 
1099.425120  	0.176135 
1101.353936  	0.167941 
1103.282752  	0.159625 
1105.211568  	0.151212 
1107.140384  	0.142929 
1109.069200  	0.134895 
1110.998016  	0.127539 
1112.926832  	0.120871 
1114.855648  	0.114178 
1116.784464  	0.107520 
1118.713280  	0.101673 
1120.642096  	0.096434 
1122.570912  	0.091193 
1124.499728  	0.086074 
1126.428544  	0.081188 
1128.357360  	0.076648 
1130.286176  	0.072561 
1132.214992  	0.069028 
1134.143808  	0.066204 
1136.072624  	0.063585 
1138.001440  	0.061057 
1139.930256  	0.058542 
1141.859072  	0.056387 
1143.787888  	0.054199 
1145.716704  	0.052346 
1147.645520  	0.050894 
1149.574336  	0.049728 
1151.503152  	0.048690 
1153.431968  	0.048172 
1155.360784  	0.048165 
1157.289600  	0.048612 
1159.218416  	0.049319 
1161.147232  	0.050463 
1163.076048  	0.051571 
1165.004864  	0.053067 
1166.933680  	0.054566 
1168.862496  	0.056254 
1170.791312  	0.058228 
1172.720128  	0.060289 
1174.648944  	0.062139 
1176.577760  	0.064249 
1178.506576  	0.066258 
1180.435392  	0.068221 
1182.364208  	0.070151 
1184.293024  	0.072321 
1186.221840  	0.074604 
1188.150656  	0.077070 
1190.079472  	0.080035 
1192.008288  	0.083472 
1193.937104  	0.087468 
1195.865920  	0.092076 
1197.794736  	0.096982 
1199.723552  	0.102476 
1201.652368  	0.108141 
1203.581184  	0.113934 
1205.510000  	0.119646 
1207.438816  	0.125373 
1209.367632  	0.130766 
1211.296448  	0.136007 
1213.225264  	0.140578 
1215.154080  	0.144166 
1217.082896  	0.147330 
1219.011712  	0.150012 
1220.940528  	0.152051 
1222.869344  	0.153628 
1224.798160  	0.154819 
1226.726976  	0.155575 
1228.655792  	0.156161 
1230.584608  	0.156341 
1232.513424  	0.156160 
1234.442240  	0.155381 
1236.371056  	0.153931 
1238.299872  	0.151425 
1240.228688  	0.146146 
1242.157504  	0.140978 
1244.086320  	0.137364 
1246.015136  	0.131586 
1247.943952  	0.124704 
1249.872768  	0.118008 
1251.801584  	0.112564 
1253.730400  	0.107167 
1255.659216  	0.101747 
1257.588032  	0.096628 
1259.516848  	0.091894 
1261.445664  	0.087625 
1263.374480  	0.083743 
1265.303296  	0.080318 
1267.232112  	0.077664 
1269.160928  	0.075859 
1271.089744  	0.074570 
1273.018560  	0.073853 
1274.947376  	0.073639 
1276.876192  	0.073371 
1278.805008  	0.072742 
1280.733824  	0.071408 
1282.662640  	0.069120 
1284.591456  	0.066143 
1286.520272  	0.063108 
1288.449088  	0.060618 
1290.377904  	0.058536 
1292.306720  	0.056975 
1294.235536  	0.055116 
1296.164352  	0.052659 
1298.093168  	0.049619 
1300.021984  	0.046625 
1301.950800  	0.043779 
1303.879616  	0.041420 
1305.808432  	0.039450 
1307.737248  	0.037861 
1309.666064  	0.036396 
1311.594880  	0.035854 
1313.523696  	0.035595 
1315.452512  	0.035335 
1317.381328  	0.035629 
1319.310144  	0.036096 
1321.238960  	0.036311 
1323.167776  	0.036770 
1325.096592  	0.037225 
1327.025408  	0.037423 
1328.954224  	0.037040 
1330.883040  	0.036416 
1332.811856  	0.035562 
1334.740672  	0.035027 
1336.669488  	0.034917 
1338.598304  	0.035283 
1340.527120  	0.034345 
1342.455936  	0.032657 
1344.384752  	0.032168 
1346.313568  	0.032601 
1348.242384  	0.033543 
1350.171200  	0.034805 
1352.100016  	0.036218 
1354.028832  	0.037844 
1355.957648  	0.039461 
1357.886464  	0.040992 
1359.815280  	0.042633 
1361.744096  	0.044643 
1363.672912  	0.045324 
1365.601728  	0.044719 
1367.530544  	0.044757 
1369.459360  	0.044327 
1371.388176  	0.043115 
1373.316992  	0.041864 
1375.245808  	0.039365 
1377.174624  	0.036811 
1379.103440  	0.034362 
1381.032256  	0.032048 
1382.961072  	0.030616 
1384.889888  	0.030614 
1386.818704  	0.031343 
1388.747520  	0.030516 
1390.676336  	0.028069 
1392.605152  	0.024529 
1394.533968  	0.023744 
1396.462784  	0.027437 
1398.391600  	0.028715 
1400.320416  	0.027820 
1402.249232  	0.027006 
1404.178048  	0.027663 
1406.106864  	0.028269 
1408.035680  	0.029508 
1409.964496  	0.031795 
1411.893312  	0.034570 
1413.822128  	0.037194 
1415.750944  	0.040662 
1417.679760  	0.043485 
1419.608576  	0.043810 
1421.537392  	0.043133 
1423.466208  	0.043245 
1425.395024  	0.042019 
1427.323840  	0.040701 
1429.252656  	0.039669 
1431.181472  	0.038797 
1433.110288  	0.038482 
1435.039104  	0.039182 
1436.967920  	0.039502 
1438.896736  	0.039049 
1440.825552  	0.039117 
1442.754368  	0.039546 
1444.683184  	0.039725 
1446.612000  	0.040137 
1448.540816  	0.039694 
1450.469632  	0.039393 
1452.398448  	0.039927 
1454.327264  	0.041090 
1456.256080  	0.042658 
1458.184896  	0.042629 
1460.113712  	0.041956 
1462.042528  	0.042068 
1463.971344  	0.042656 
1465.900160  	0.044066 
1467.828976  	0.045808 
1469.757792  	0.048305 
1471.686608  	0.051927 
1473.615424  	0.056095 
1475.544240  	0.058801 
1477.473056  	0.060518 
1479.401872  	0.061372 
1481.330688  	0.062296 
1483.259504  	0.062418 
1485.188320  	0.062434 
1487.117136  	0.062008 
1489.045952  	0.061361 
1490.974768  	0.057967 
1492.903584  	0.054425 
1494.832400  	0.051948 
1496.761216  	0.048907 
1498.690032  	0.045661 
1500.618848  	0.043446 
1502.547664  	0.041516 
1504.476480  	0.039866 
1506.405296  	0.039962 
1508.334112  	0.040346 
1510.262928  	0.038323 
1512.191744  	0.036327 
1514.120560  	0.035505 
1516.049376  	0.036115 
1517.978192  	0.036035 
1519.907008  	0.036742 
1521.835824  	0.038276 
1523.764640  	0.040195 
1525.693456  	0.042784 
1527.622272  	0.044418 
1529.551088  	0.044994 
1531.479904  	0.045765 
1533.408720  	0.045460 
1535.337536  	0.043854 
1537.266352  	0.042315 
1539.195168  	0.039603 
1541.123984  	0.037340 
1543.052800  	0.037794 
1544.981616  	0.037096 
1546.910432  	0.035174 
1548.839248  	0.035050 
1550.768064  	0.035225 
1552.696880  	0.034574 
1554.625696  	0.035260 
1556.554512  	0.035272 
1558.483328  	0.035849 
1560.412144  	0.038332 
1562.340960  	0.040600 
1564.269776  	0.042617 
1566.198592  	0.045856 
1568.127408  	0.048774 
1570.056224  	0.052705 
1571.985040  	0.056228 
1573.913856  	0.058619 
1575.842672  	0.059715 
1577.771488  	0.061336 
1579.700304  	0.061853 
1581.629120  	0.061844 
1583.557936  	0.062019 
1585.486752  	0.063279 
1587.415568  	0.065477 
1589.344384  	0.068971 
1591.273200  	0.073062 
1593.202016  	0.077840 
1595.130832  	0.082410 
1597.059648  	0.086915 
1598.988464  	0.090493 
1600.917280  	0.093615 
1602.846096  	0.095276 
1604.774912  	0.096131 
1606.703728  	0.096039 
1608.632544  	0.095654 
1610.561360  	0.094738 
1612.490176  	0.094339 
1614.418992  	0.094256 
1616.347808  	0.094518 
1618.276624  	0.096300 
1620.205440  	0.100204 
1622.134256  	0.103885 
1624.063072  	0.109028 
1625.991888  	0.114535 
1627.920704  	0.120782 
1629.849520  	0.127333 
1631.778336  	0.134059 
1633.707152  	0.139606 
1635.635968  	0.145227 
1637.564784  	0.150925 
1639.493600  	0.155896 
1641.422416  	0.159398 
1643.351232  	0.162583 
1645.280048  	0.164305 
1647.208864  	0.164680 
1649.137680  	0.164996 
1651.066496  	0.166039 
1652.995312  	0.162661 
1654.924128  	0.160984 
1656.852944  	0.161180 
1658.781760  	0.160431 
1660.710576  	0.159296 
1662.639392  	0.157303 
1664.568208  	0.155596 
1666.497024  	0.155578 
1668.425840  	0.154352 
1670.354656  	0.152167 
1672.283472  	0.151338 
1674.212288  	0.151200 
1676.141104  	0.150068 
1678.069920  	0.151125 
1679.998736  	0.152490 
1681.927552  	0.153263 
1683.856368  	0.151970 
1685.785184  	0.151186 
1687.714000  	0.152113 
1689.642816  	0.151217 
1691.571632  	0.149236 
1693.500448  	0.148091 
1695.429264  	0.144928 
1697.358080  	0.141766 
1699.286896  	0.139171 
1701.215712  	0.132933 
1703.144528  	0.130625 
1705.073344  	0.126689 
1707.002160  	0.121139 
1708.930976  	0.116804 
1710.859792  	0.112196 
1712.788608  	0.107455 
1714.717424  	0.102325 
1716.646240  	0.095876 
1718.575056  	0.087800 
1720.503872  	0.081434 
1722.432688  	0.076474 
1724.361504  	0.070260 
1726.290320  	0.064527 
1728.219136  	0.059628 
1730.147952  	0.055276 
1732.076768  	0.050873 
1734.005584  	0.045640 
1735.934400  	0.039857 
1737.863216  	0.036826 
1739.792032  	0.032348 
1741.720848  	0.029621 
1743.649664  	0.027364 
1745.578480  	0.024680 
1747.507296  	0.022368 
1749.436112  	0.021018 
1751.364928  	0.019446 
1753.293744  	0.017599 
1755.222560  	0.016075 
1757.151376  	0.015465 
1759.080192  	0.014307 
1761.009008  	0.013780 
1762.937824  	0.012904 
1764.866640  	0.012484 
1766.795456  	0.012467 
1768.724272  	0.012485 
1770.653088  	0.011049 
1772.581904  	0.010529 
1774.510720  	0.010619 
1776.439536  	0.010739 
1778.368352  	0.010441 
1780.297168  	0.010659 
1782.225984  	0.010171 
1784.154800  	0.010105 
1786.083616  	0.009848 
1788.012432  	0.009579 
1789.941248  	0.009623 
1791.870064  	0.009873 
1793.798880  	0.009258 
1795.727696  	0.009455 
1797.656512  	0.008995 
1799.585328  	0.008962 
1801.514144  	0.009102 
1803.442960  	0.008653 
1805.371776  	0.008015 
1807.300592  	0.008034 
1809.229408  	0.007633 
1811.158224  	0.007777 
1813.087040  	0.007475 
1815.015856  	0.007120 
1816.944672  	0.006984 
1818.873488  	0.007254 
1820.802304  	0.007337 
1822.731120  	0.007573 
1824.659936  	0.007640 
1826.588752  	0.007602 
1828.517568  	0.007133 
1830.446384  	0.007577 
1832.375200  	0.007556 
1834.304016  	0.007391 
1836.232832  	0.007140 
1838.161648  	0.007283 
1840.090464  	0.007032 
1842.019280  	0.007280 
1843.948096  	0.007120 
1845.876912  	0.007466 
1847.805728  	0.007474 
1849.734544  	0.007286 
1851.663360  	0.006736 
1853.592176  	0.006707 
1855.520992  	0.006633 
1857.449808  	0.007127 
1859.378624  	0.007064 
1861.307440  	0.006964 
1863.236256  	0.006650 
1865.165072  	0.006920 
1867.093888  	0.007357 
1869.022704  	0.007920 
1870.951520  	0.007071 
1872.880336  	0.006808 
1874.809152  	0.006486 
1876.737968  	0.006582 
1878.666784  	0.006473 
1880.595600  	0.006721 
1882.524416  	0.006469 
1884.453232  	0.006392 
1886.382048  	0.005933 
1888.310864  	0.006467 
1890.239680  	0.007014 
1892.168496  	0.006729 
1894.097312  	0.006287 
1896.026128  	0.006434 
1897.954944  	0.006097 
1899.883760  	0.005875 
1901.812576  	0.005694 
1903.741392  	0.005929 
1905.670208  	0.005825 
1907.599024  	0.006302 
1909.527840  	0.006110 
1911.456656  	0.006070 
1913.385472  	0.005946 
1915.314288  	0.006509 
1917.243104  	0.006816 
1919.171920  	0.006734 
1921.100736  	0.006391 
1923.029552  	0.006871 
1924.958368  	0.005842 
1926.887184  	0.005840 
1928.816000  	0.005341 
1930.744816  	0.005063 
1932.673632  	0.004762 
1934.602448  	0.005243 
1936.531264  	0.005942 
1938.460080  	0.006098 
1940.388896  	0.005591 
1942.317712  	0.005940 
1944.246528  	0.005588 
1946.175344  	0.006013 
1948.104160  	0.005217 
1950.032976  	0.005609 
1951.961792  	0.006035 
1953.890608  	0.006195 
1955.819424  	0.004831 
1957.748240  	0.004630 
1959.677056  	0.004768 
1961.605872  	0.005056 
1963.534688  	0.004555 
1965.463504  	0.005386 
1967.392320  	0.004949 
1969.321136  	0.004643 
1971.249952  	0.005102 
1973.178768  	0.006254 
1975.107584  	0.004465 
1977.036400  	0.005068 
1978.965216  	0.007060 
1980.894032  	0.006456 
1982.822848  	0.004646 
1984.751664  	0.006177 
1986.680480  	0.006866 
1988.609296  	0.006581 
1990.538112  	0.006099 
1992.466928  	0.006593 
1994.395744  	0.005859 
1996.324560  	0.005513 
1998.253376  	0.005243 
2000.182192  	0.005974 
2002.111008  	0.006272 
2004.039824  	0.006020 
2005.968640  	0.004728 
2007.897456  	0.006404 
2009.826272  	0.006305 
2011.755088  	0.004945 
2013.683904  	0.004975 
2015.612720  	0.005901 
2017.541536  	0.004917 
2019.470352  	0.004622 
2021.399168  	0.004436 
2023.327984  	0.005553 
2025.256800  	0.005505 
2027.185616  	0.004925 
2029.114432  	0.004271 
2031.043248  	0.006086 
2032.972064  	0.006603 
2034.900880  	0.007322 
2036.829696  	0.007392 
2038.758512  	0.007089 
2040.687328  	0.006419 
2042.616144  	0.006189 
2044.544960  	0.005496 
2046.473776  	0.006374 
2048.402592  	0.006935 
2050.331408  	0.007482 
2052.260224  	0.006305 
2054.189040  	0.005966 
2056.117856  	0.005472 
2058.046672  	0.005686 
2059.975488  	0.005660 
2061.904304  	0.005991 
2063.833120  	0.006740 
2065.761936  	0.006933 
2067.690752  	0.006341 
2069.619568  	0.006534 
2071.548384  	0.005617 
2073.477200  	0.005366 
2075.406016  	0.006352 
2077.334832  	0.007136 
2079.263648  	0.006501 
2081.192464  	0.006212 
2083.121280  	0.006358 
2085.050096  	0.006722 
2086.978912  	0.006703 
2088.907728  	0.006325 
2090.836544  	0.005429 
2092.765360  	0.005630 
2094.694176  	0.006020 
2096.622992  	0.005967 
2098.551808  	0.005640 
2100.480624  	0.006044 
2102.409440  	0.005622 
2104.338256  	0.005824 
2106.267072  	0.006196 
2108.195888  	0.006428 
2110.124704  	0.006562 
2112.053520  	0.006852 
2113.982336  	0.006600 
2115.911152  	0.006573 
2117.839968  	0.006041 
2119.768784  	0.005717 
2121.697600  	0.005390 
2123.626416  	0.005008 
2125.555232  	0.004825 
2127.484048  	0.005221 
2129.412864  	0.005085 
2131.341680  	0.004233 
2133.270496  	0.004121 
2135.199312  	0.005377 
2137.128128  	0.005764 
2139.056944  	0.005536 
2140.985760  	0.004647 
2142.914576  	0.005635 
2144.843392  	0.005089 
2146.772208  	0.004881 
2148.701024  	0.004880 
2150.629840  	0.005145 
2152.558656  	0.004389 
2154.487472  	0.003287 
2156.416288  	0.002781 
2158.345104  	0.004537 
2160.273920  	0.007436 
2162.202736  	0.009187 
2164.131552  	0.009015 
2166.060368  	0.009517 
2167.989184  	0.007837 
2169.918000  	0.006661 
2171.846816  	0.006191 
2173.775632  	0.006743 
2175.704448  	0.007612 
2177.633264  	0.008051 
2179.562080  	0.007150 
2181.490896  	0.006197 
2183.419712  	0.006026 
2185.348528  	0.006914 
2187.277344  	0.007022 
2189.206160  	0.006588 
2191.134976  	0.007259 
2193.063792  	0.008943 
2194.992608  	0.008789 
2196.921424  	0.007860 
2198.850240  	0.007912 
2200.779056  	0.008441 
2202.707872  	0.008527 
2204.636688  	0.007995 
2206.565504  	0.007652 
2208.494320  	0.007953 
2210.423136  	0.007004 
2212.351952  	0.006936 
2214.280768  	0.007166 
2216.209584  	0.007099 
2218.138400  	0.007225 
2220.067216  	0.007196 
2221.996032  	0.006786 
2223.924848  	0.006567 
2225.853664  	0.007172 
2227.782480  	0.007782 
2229.711296  	0.007747 
2231.640112  	0.007525 
2233.568928  	0.007301 
2235.497744  	0.007233 
2237.426560  	0.006668 
2239.355376  	0.006801 
2241.284192  	0.006704 
2243.213008  	0.006762 
2245.141824  	0.006639 
2247.070640  	0.006215 
2248.999456  	0.006051 
2250.928272  	0.006767 
2252.857088  	0.006787 
2254.785904  	0.006296 
2256.714720  	0.006696 
2258.643536  	0.007343 
2260.572352  	0.006968 
2262.501168  	0.006746 
2264.429984  	0.006871 
2266.358800  	0.007405 
2268.287616  	0.007187 
2270.216432  	0.007009 
2272.145248  	0.006768 
2274.074064  	0.006818 
2276.002880  	0.006919 
2277.931696  	0.007554 
2279.860512  	0.008054 
2281.789328  	0.008073 
2283.718144  	0.007936 
2285.646960  	0.008235 
2287.575776  	0.008491 
2289.504592  	0.008081 
2291.433408  	0.007448 
2293.362224  	0.007381 
2295.291040  	0.007546 
2297.219856  	0.007728 
2299.148672  	0.007664 
2301.077488  	0.007697 
2303.006304  	0.007723 
2304.935120  	0.007626 
2306.863936  	0.007477 
2308.792752  	0.007308 
2310.721568  	0.006968 
2312.650384  	0.006345 
2314.579200  	0.005613 
2316.508016  	0.005277 
2318.436832  	0.004455 
2320.365648  	0.003414 
2322.294464  	0.002442 
2324.223280  	0.001119 
2326.152096  	-0.000748 
2328.080912  	-0.002011 
2330.009728  	-0.003120 
2331.938544  	-0.004327 
2333.867360  	-0.005705 
2335.796176  	-0.006670 
2337.724992  	-0.007357 
2339.653808  	-0.007599 
2341.582624  	-0.007248 
2343.511440  	-0.005585 
2345.440256  	-0.003154 
2347.369072  	0.000084 
2349.297888  	0.000925 
2351.226704  	-0.001656 
2353.155520  	-0.005335 
2355.084336  	-0.008778 
2357.013152  	-0.011207 
2358.941968  	-0.012516 
2360.870784  	-0.013271 
2362.799600  	-0.012149 
2364.728416  	-0.010515 
2366.657232  	-0.008398 
2368.586048  	-0.006474 
2370.514864  	-0.003937 
2372.443680  	-0.001144 
2374.372496  	0.001704 
2376.301312  	0.004005 
2378.230128  	0.005704 
2380.158944  	0.006617 
2382.087760  	0.007225 
2384.016576  	0.007710 
2385.945392  	0.007839 
2387.874208  	0.007457 
2389.803024  	0.007173 
2391.731840  	0.007155 
2393.660656  	0.007188 
2395.589472  	0.007178 
2397.518288  	0.007363 
2399.447104  	0.007242 
2401.375920  	0.007014 
2403.304736  	0.007020 
2405.233552  	0.007183 
2407.162368  	0.007410 
2409.091184  	0.007454 
2411.020000  	0.007211 
2412.948816  	0.007360 
2414.877632  	0.007492 
2416.806448  	0.007526 
2418.735264  	0.007587 
2420.664080  	0.007634 
2422.592896  	0.007412 
2424.521712  	0.007437 
2426.450528  	0.007691 
2428.379344  	0.007839 
2430.308160  	0.007834 
2432.236976  	0.007773 
2434.165792  	0.007869 
2436.094608  	0.008296 
2438.023424  	0.008420 
2439.952240  	0.008564 
2441.881056  	0.008749 
2443.809872  	0.008645 
2445.738688  	0.008457 
2447.667504  	0.008473 
2449.596320  	0.008395 
2451.525136  	0.008372 
2453.453952  	0.008493 
2455.382768  	0.008796 
2457.311584  	0.009059 
2459.240400  	0.009026 
2461.169216  	0.008733 
2463.098032  	0.008758 
2465.026848  	0.008753 
2466.955664  	0.008576 
2468.884480  	0.008456 
2470.813296  	0.008749 
2472.742112  	0.008691 
2474.670928  	0.008374 
2476.599744  	0.008599 
2478.528560  	0.008908 
2480.457376  	0.008919 
2482.386192  	0.008894 
2484.315008  	0.009004 
2486.243824  	0.009098 
2488.172640  	0.008953 
2490.101456  	0.008972 
2492.030272  	0.009256 
2493.959088  	0.009075 
2495.887904  	0.008573 
2497.816720  	0.008677 
2499.745536  	0.009017 
2501.674352  	0.009213 
2503.603168  	0.009224 
2505.531984  	0.009271 
2507.460800  	0.009321 
2509.389616  	0.009440 
2511.318432  	0.009300 
2513.247248  	0.009284 
2515.176064  	0.009373 
2517.104880  	0.009757 
2519.033696  	0.010016 
2520.962512  	0.009982 
2522.891328  	0.009972 
2524.820144  	0.010044 
2526.748960  	0.010031 
2528.677776  	0.010142 
2530.606592  	0.010234 
2532.535408  	0.010214 
2534.464224  	0.010322 
2536.393040  	0.010300 
2538.321856  	0.010059 
2540.250672  	0.010187 
2542.179488  	0.010201 
2544.108304  	0.010321 
2546.037120  	0.010389 
2547.965936  	0.010696 
2549.894752  	0.010820 
2551.823568  	0.010839 
2553.752384  	0.010990 
2555.681200  	0.011105 
2557.610016  	0.011032 
2559.538832  	0.010913 
2561.467648  	0.010921 
2563.396464  	0.011258 
2565.325280  	0.011451 
2567.254096  	0.011491 
2569.182912  	0.011369 
2571.111728  	0.011345 
2573.040544  	0.011305 
2574.969360  	0.011284 
2576.898176  	0.011397 
2578.826992  	0.011896 
2580.755808  	0.011883 
2582.684624  	0.011651 
2584.613440  	0.011612 
2586.542256  	0.011906 
2588.471072  	0.012120 
2590.399888  	0.012040 
2592.328704  	0.012055 
2594.257520  	0.012259 
2596.186336  	0.012644 
2598.115152  	0.012691 
2600.043968  	0.012277 
2601.972784  	0.012208 
2603.901600  	0.012494 
2605.830416  	0.012671 
2607.759232  	0.012600 
2609.688048  	0.012834 
2611.616864  	0.012894 
2613.545680  	0.012797 
2615.474496  	0.012945 
2617.403312  	0.013115 
2619.332128  	0.013286 
2621.260944  	0.013393 
2623.189760  	0.013394 
2625.118576  	0.013432 
2627.047392  	0.013596 
2628.976208  	0.013945 
2630.905024  	0.013944 
2632.833840  	0.013938 
2634.762656  	0.013975 
2636.691472  	0.014087 
2638.620288  	0.014145 
2640.549104  	0.014188 
2642.477920  	0.014283 
2644.406736  	0.014328 
2646.335552  	0.014497 
2648.264368  	0.014672 
2650.193184  	0.014719 
2652.122000  	0.014940 
2654.050816  	0.015097 
2655.979632  	0.015074 
2657.908448  	0.015092 
2659.837264  	0.015131 
2661.766080  	0.015080 
2663.694896  	0.015122 
2665.623712  	0.015089 
2667.552528  	0.015039 
2669.481344  	0.015123 
2671.410160  	0.015346 
2673.338976  	0.015547 
2675.267792  	0.015632 
2677.196608  	0.015673 
2679.125424  	0.015793 
2681.054240  	0.015795 
2682.983056  	0.015850 
2684.911872  	0.016049 
2686.840688  	0.016188 
2688.769504  	0.016190 
2690.698320  	0.016249 
2692.627136  	0.016393 
2694.555952  	0.016458 
2696.484768  	0.016375 
2698.413584  	0.016380 
2700.342400  	0.016520 
2702.271216  	0.016734 
2704.200032  	0.016902 
2706.128848  	0.016954 
2708.057664  	0.017043 
2709.986480  	0.017171 
2711.915296  	0.017214 
2713.844112  	0.017186 
2715.772928  	0.017226 
2717.701744  	0.017408 
2719.630560  	0.017452 
2721.559376  	0.017473 
2723.488192  	0.017550 
2725.417008  	0.017723 
2727.345824  	0.017845 
2729.274640  	0.017832 
2731.203456  	0.017765 
2733.132272  	0.017945 
2735.061088  	0.018160 
2736.989904  	0.018167 
2738.918720  	0.018101 
2740.847536  	0.018051 
2742.776352  	0.018122 
2744.705168  	0.018283 
2746.633984  	0.018300 
2748.562800  	0.018348 
2750.491616  	0.018435 
2752.420432  	0.018522 
2754.349248  	0.018533 
2756.278064  	0.018500 
2758.206880  	0.018514 
2760.135696  	0.018655 
2762.064512  	0.018621 
2763.993328  	0.018612 
2765.922144  	0.018688 
2767.850960  	0.018646 
2769.779776  	0.018632 
2771.708592  	0.018710 
2773.637408  	0.018663 
2775.566224  	0.018701 
2777.495040  	0.018779 
2779.423856  	0.018825 
2781.352672  	0.018878 
2783.281488  	0.019051 
2785.210304  	0.019040 
2787.139120  	0.019072 
2789.067936  	0.019191 
2790.996752  	0.019200 
2792.925568  	0.019246 
2794.854384  	0.019252 
2796.783200  	0.019183 
2798.712016  	0.019171 
2800.640832  	0.019201 
2802.569648  	0.019264 
2804.498464  	0.019394 
2806.427280  	0.019465 
2808.356096  	0.019449 
2810.284912  	0.019470 
2812.213728  	0.019352 
2814.142544  	0.019374 
2816.071360  	0.019555 
2818.000176  	0.019375 
2819.928992  	0.019145 
2821.857808  	0.019186 
2823.786624  	0.019119 
2825.715440  	0.018950 
2827.644256  	0.018769 
2829.573072  	0.018646 
2831.501888  	0.018363 
2833.430704  	0.018050 
2835.359520  	0.017768 
2837.288336  	0.017399 
2839.217152  	0.017109 
2841.145968  	0.016787 
2843.074784  	0.016438 
2845.003600  	0.016237 
2846.932416  	0.016220 
2848.861232  	0.016143 
2850.790048  	0.015672 
2852.718864  	0.014895 
2854.647680  	0.013992 
2856.576496  	0.013149 
2858.505312  	0.012264 
2860.434128  	0.011377 
2862.362944  	0.010424 
2864.291760  	0.009438 
2866.220576  	0.008605 
2868.149392  	0.008127 
2870.078208  	0.007856 
2872.007024  	0.007623 
2873.935840  	0.007532 
2875.864656  	0.007446 
2877.793472  	0.007282 
2879.722288  	0.006807 
2881.651104  	0.005943 
2883.579920  	0.005337 
2885.508736  	0.005181 
2887.437552  	0.005382 
2889.366368  	0.005404 
2891.295184  	0.004980 
2893.224000  	0.004639 
2895.152816  	0.004701 
2897.081632  	0.004295 
2899.010448  	0.002328 
2900.939264  	0.000737 
2902.868080  	0.002294 
2904.796896  	0.003920 
2906.725712  	0.004451 
2908.654528  	0.004886 
2910.583344  	0.005407 
2912.512160  	0.006618 
2914.440976  	0.008437 
2916.369792  	0.009534 
2918.298608  	0.010024 
2920.227424  	0.010367 
2922.156240  	0.010783 
2924.085056  	0.011382 
2926.013872  	0.012141 
2927.942688  	0.012987 
2929.871504  	0.013765 
2931.800320  	0.014384 
2933.729136  	0.014838 
2935.657952  	0.015050 
2937.586768  	0.015305 
2939.515584  	0.015338 
2941.444400  	0.015173 
2943.373216  	0.015122 
2945.302032  	0.015248 
2947.230848  	0.015221 
2949.159664  	0.014735 
2951.088480  	0.014045 
2953.017296  	0.013565 
2954.946112  	0.012719 
2956.874928  	0.011613 
2958.803744  	0.010596 
2960.732560  	0.009840 
2962.661376  	0.009108 
2964.590192  	0.007847 
2966.519008  	0.006284 
2968.447824  	0.004904 
2970.376640  	0.003970 
2972.305456  	0.003327 
2974.234272  	0.003387 
2976.163088  	0.003675 
2978.091904  	0.003830 
2980.020720  	0.003789 
2981.949536  	0.003881 
2983.878352  	0.003419 
2985.807168  	0.002192 
2987.735984  	0.001340 
2989.664800  	0.001951 
2991.593616  	0.005579 
2993.522432  	0.007775 
2995.451248  	0.008341 
2997.380064  	0.009312 
2999.308880  	0.010617 
3001.237696  	0.011970 
3003.166512  	0.013458 
3005.095328  	0.015075 
3007.024144  	0.016771 
3008.952960  	0.018494 
3010.881776  	0.020152 
3012.810592  	0.021657 
3014.739408  	0.022956 
3016.668224  	0.024231 
3018.597040  	0.025491 
3020.525856  	0.026656 
3022.454672  	0.027760 
3024.383488  	0.028849 
3026.312304  	0.029978 
3028.241120  	0.030901 
3030.169936  	0.031660 
3032.098752  	0.032648 
3034.027568  	0.033205 
3035.956384  	0.033615 
3037.885200  	0.034285 
3039.814016  	0.035029 
3041.742832  	0.035671 
3043.671648  	0.036114 
3045.600464  	0.036614 
3047.529280  	0.037088 
3049.458096  	0.037385 
3051.386912  	0.037502 
3053.315728  	0.037852 
3055.244544  	0.038345 
3057.173360  	0.038866 
3059.102176  	0.039267 
3061.030992  	0.039429 
3062.959808  	0.039751 
3064.888624  	0.040194 
3066.817440  	0.040623 
3068.746256  	0.040884 
3070.675072  	0.041090 
3072.603888  	0.041583 
3074.532704  	0.042106 
3076.461520  	0.042530 
3078.390336  	0.042821 
3080.319152  	0.043152 
3082.247968  	0.043531 
3084.176784  	0.043984 
3086.105600  	0.044227 
3088.034416  	0.044448 
3089.963232  	0.044903 
3091.892048  	0.045381 
3093.820864  	0.045740 
3095.749680  	0.046084 
3097.678496  	0.046291 
3099.607312  	0.046609 
3101.536128  	0.046892 
3103.464944  	0.047347 
3105.393760  	0.047826 
3107.322576  	0.048222 
3109.251392  	0.048443 
3111.180208  	0.048616 
3113.109024  	0.048939 
3115.037840  	0.049300 
3116.966656  	0.049564 
3118.895472  	0.049825 
3120.824288  	0.049947 
3122.753104  	0.050096 
3124.681920  	0.050405 
3126.610736  	0.050650 
3128.539552  	0.050934 
3130.468368  	0.051087 
3132.397184  	0.051175 
3134.326000  	0.051376 
3136.254816  	0.051520 
3138.183632  	0.051823 
3140.112448  	0.052036 
3142.041264  	0.052224 
3143.970080  	0.052476 
3145.898896  	0.052724 
3147.827712  	0.053109 
3149.756528  	0.053376 
3151.685344  	0.053703 
3153.614160  	0.054088 
3155.542976  	0.054209 
3157.471792  	0.054246 
3159.400608  	0.054669 
3161.329424  	0.055147 
3163.258240  	0.055590 
3165.187056  	0.055809 
3167.115872  	0.055941 
3169.044688  	0.056228 
3170.973504  	0.056266 
3172.902320  	0.056384 
3174.831136  	0.056756 
3176.759952  	0.057055 
3178.688768  	0.057141 
3180.617584  	0.057085 
3182.546400  	0.057030 
3184.475216  	0.057480 
3186.404032  	0.057604 
3188.332848  	0.057412 
3190.261664  	0.057721 
3192.190480  	0.057826 
3194.119296  	0.057619 
3196.048112  	0.057815 
3197.976928  	0.058109 
3199.905744  	0.057943 
3201.834560  	0.057696 
3203.763376  	0.057660 
3205.692192  	0.057704 
3207.621008  	0.057760 
3209.549824  	0.057756 
3211.478640  	0.057551 
3213.407456  	0.057367 
3215.336272  	0.057366 
3217.265088  	0.057197 
3219.193904  	0.056877 
3221.122720  	0.056709 
3223.051536  	0.056673 
3224.980352  	0.056530 
3226.909168  	0.056154 
3228.837984  	0.055845 
3230.766800  	0.055761 
3232.695616  	0.055677 
3234.624432  	0.055661 
3236.553248  	0.055705 
3238.482064  	0.055643 
3240.410880  	0.055491 
3242.339696  	0.055440 
3244.268512  	0.055391 
3246.197328  	0.055392 
3248.126144  	0.055442 
3250.054960  	0.055512 
3251.983776  	0.055474 
3253.912592  	0.055382 
3255.841408  	0.055592 
3257.770224  	0.055716 
3259.699040  	0.055794 
3261.627856  	0.056068 
3263.556672  	0.056266 
3265.485488  	0.056257 
3267.414304  	0.056346 
3269.343120  	0.056523 
3271.271936  	0.056594 
3273.200752  	0.056676 
3275.129568  	0.056898 
3277.058384  	0.056854 
3278.987200  	0.056911 
3280.916016  	0.057207 
3282.844832  	0.057369 
3284.773648  	0.057438 
3286.702464  	0.057607 
3288.631280  	0.057873 
3290.560096  	0.058119 
3292.488912  	0.058315 
3294.417728  	0.058285 
3296.346544  	0.058339 
3298.275360  	0.058488 
3300.204176  	0.058796 
3302.132992  	0.059070 
3304.061808  	0.059295 
3305.990624  	0.059587 
3307.919440  	0.059762 
3309.848256  	0.059841 
3311.777072  	0.059909 
3313.705888  	0.060079 
3315.634704  	0.060490 
3317.563520  	0.060831 
3319.492336  	0.060913 
3321.421152  	0.060906 
3323.349968  	0.061122 
3325.278784  	0.061443 
3327.207600  	0.061484 
3329.136416  	0.061463 
3331.065232  	0.061519 
3332.994048  	0.061631 
3334.922864  	0.061678 
3336.851680  	0.061516 
3338.780496  	0.061464 
3340.709312  	0.061496 
3342.638128  	0.061348 
3344.566944  	0.061138 
3346.495760  	0.060973 
3348.424576  	0.060927 
3350.353392  	0.060680 
3352.282208  	0.060336 
3354.211024  	0.060251 
3356.139840  	0.060319 
3358.068656  	0.060091 
3359.997472  	0.059833 
3361.926288  	0.059471 
3363.855104  	0.059122 
3365.783920  	0.058966 
3367.712736  	0.058805 
3369.641552  	0.058280 
3371.570368  	0.057829 
3373.499184  	0.057641 
3375.428000  	0.057411 
3377.356816  	0.057171 
3379.285632  	0.056875 
3381.214448  	0.056625 
3383.143264  	0.056382 
3385.072080  	0.056201 
3387.000896  	0.055883 
3388.929712  	0.055601 
3390.858528  	0.055442 
3392.787344  	0.055149 
3394.716160  	0.054551 
3396.644976  	0.054322 
3398.573792  	0.054119 
3400.502608  	0.053497 
3402.431424  	0.053031 
3404.360240  	0.052750 
3406.289056  	0.052438 
3408.217872  	0.052062 
3410.146688  	0.051751 
3412.075504  	0.051784 
3414.004320  	0.051549 
3415.933136  	0.051044 
3417.861952  	0.050645 
3419.790768  	0.050568 
3421.719584  	0.050448 
3423.648400  	0.049870 
3425.577216  	0.049422 
3427.506032  	0.049169 
3429.434848  	0.048666 
3431.363664  	0.048196 
3433.292480  	0.048052 
3435.221296  	0.047889 
3437.150112  	0.047578 
3439.078928  	0.047290 
3441.007744  	0.046955 
3442.936560  	0.046594 
3444.865376  	0.046200 
3446.794192  	0.045645 
3448.723008  	0.045235 
3450.651824  	0.044683 
3452.580640  	0.044019 
3454.509456  	0.043575 
3456.438272  	0.043340 
3458.367088  	0.043194 
3460.295904  	0.042964 
3462.224720  	0.042449 
3464.153536  	0.041923 
3466.082352  	0.041534 
3468.011168  	0.041165 
3469.939984  	0.040593 
3471.868800  	0.039898 
3473.797616  	0.039484 
3475.726432  	0.038995 
3477.655248  	0.038416 
3479.584064  	0.038161 
3481.512880  	0.037957 
3483.441696  	0.037241 
3485.370512  	0.036433 
3487.299328  	0.036111 
3489.228144  	0.035795 
3491.156960  	0.035138 
3493.085776  	0.034718 
3495.014592  	0.034308 
3496.943408  	0.033970 
3498.872224  	0.033583 
3500.801040  	0.033558 
3502.729856  	0.033418 
3504.658672  	0.032665 
3506.587488  	0.031788 
3508.516304  	0.031729 
3510.445120  	0.031616 
3512.373936  	0.030992 
3514.302752  	0.030417 
3516.231568  	0.030037 
3518.160384  	0.029674 
3520.089200  	0.029506 
3522.018016  	0.029750 
3523.946832  	0.029929 
3525.875648  	0.029311 
3527.804464  	0.028509 
3529.733280  	0.027979 
3531.662096  	0.027408 
3533.590912  	0.026870 
3535.519728  	0.026879 
3537.448544  	0.026784 
3539.377360  	0.026107 
3541.306176  	0.025697 
3543.234992  	0.025771 
3545.163808  	0.026243 
3547.092624  	0.025672 
3549.021440  	0.024306 
3550.950256  	0.023731 
3552.879072  	0.023931 
3554.807888  	0.023522 
3556.736704  	0.022626 
3558.665520  	0.022375 
3560.594336  	0.022528 
3562.523152  	0.022216 
3564.451968  	0.022441 
3566.380784  	0.023586 
3568.309600  	0.023033 
3570.238416  	0.021096 
3572.167232  	0.019820 
3574.096048  	0.019409 
3576.024864  	0.019103 
3577.953680  	0.018751 
3579.882496  	0.018499 
3581.811312  	0.018037 
3583.740128  	0.017640 
3585.668944  	0.017790 
3587.597760  	0.018547 
3589.526576  	0.017540 
3591.455392  	0.015660 
3593.384208  	0.015336 
3595.313024  	0.015277 
3597.241840  	0.014495 
3599.170656  	0.013365 
3601.099472  	0.012840 
3603.028288  	0.012589 
3604.957104  	0.012134 
3606.885920  	0.012021 
3608.814736  	0.012398 
3610.743552  	0.011669 
3612.672368  	0.010832 
3614.601184  	0.010241 
3616.530000  	0.009223 
3618.458816  	0.008913 
3620.387632  	0.008681 
3622.316448  	0.007250 
3624.245264  	0.006136 
3626.174080  	0.005568 
3628.102896  	0.005303 
3630.031712  	0.005908 
3631.960528  	0.004795 
3633.889344  	0.003504 
3635.818160  	0.002320 
3637.746976  	0.001536 
3639.675792  	0.001423 
3641.604608  	0.001059 
3643.533424  	0.000161 
3645.462240  	-0.000972 
3647.391056  	-0.001611 
3649.319872  	-0.002008 
3651.248688  	-0.001952 
3653.177504  	-0.003284 
3655.106320  	-0.005159 
3657.035136  	-0.005740 
3658.963952  	-0.006312 
3660.892768  	-0.007040 
3662.821584  	-0.007621 
3664.750400  	-0.007744 
3666.679216  	-0.008237 
3668.608032  	-0.009019 
3670.536848  	-0.008488 
3672.465664  	-0.008363 
3674.394480  	-0.010179 
3676.323296  	-0.009291 
3678.252112  	-0.007516 
3680.180928  	-0.007280 
3682.109744  	-0.008038 
3684.038560  	-0.008833 
3685.967376  	-0.009456 
3687.896192  	-0.010220 
3689.825008  	-0.009415 
3691.753824  	-0.008295 
3693.682640  	-0.008010 
3695.611456  	-0.008037 
3697.540272  	-0.007275 
3699.469088  	-0.006825 
3701.397904  	-0.006158 
3703.326720  	-0.005287 
3705.255536  	-0.005121 
3707.184352  	-0.005309 
3709.113168  	-0.005295 
3711.041984  	-0.004480 
3712.970800  	-0.003187 
3714.899616  	-0.002771 
3716.828432  	-0.003429 
3718.757248  	-0.003876 
3720.686064  	-0.004025 
3722.614880  	-0.003145 
3724.543696  	-0.002287 
3726.472512  	-0.002283 
3728.401328  	-0.003340 
3730.330144  	-0.004826 
3732.258960  	-0.004592 
3734.187776  	-0.002013 
3736.116592  	-0.000280 
3738.045408  	-0.001706 
3739.974224  	-0.002915 
3741.903040  	-0.003420 
3743.831856  	-0.003021 
3745.760672  	-0.001413 
3747.689488  	-0.003168 
3749.618304  	-0.004607 
3751.547120  	-0.003564 
3753.475936  	-0.001853 
3755.404752  	-0.002422 
3757.333568  	-0.003164 
3759.262384  	-0.002929 
3761.191200  	-0.002384 
3763.120016  	-0.002584 
3765.048832  	-0.002766 
3766.977648  	-0.002846 
3768.906464  	-0.003497 
3770.835280  	-0.002785 
3772.764096  	-0.002585 
3774.692912  	-0.002922 
3776.621728  	-0.003369 
3778.550544  	-0.003541 
3780.479360  	-0.002992 
3782.408176  	-0.003026 
3784.336992  	-0.003283 
3786.265808  	-0.003168 
3788.194624  	-0.003278 
3790.123440  	-0.003484 
3792.052256  	-0.003463 
3793.981072  	-0.003565 
3795.909888  	-0.003503 
3797.838704  	-0.002842 
3799.767520  	-0.003846 
3801.696336  	-0.003663 
3803.625152  	-0.002971 
3805.553968  	-0.004308 
3807.482784  	-0.003594 
3809.411600  	-0.002711 
3811.340416  	-0.002995 
3813.269232  	-0.003536 
3815.198048  	-0.004285 
3817.126864  	-0.003311 
3819.055680  	-0.003892 
3820.984496  	-0.003713 
3822.913312  	-0.002227 
3824.842128  	-0.003163 
3826.770944  	-0.003453 
3828.699760  	-0.003373 
3830.628576  	-0.003892 
3832.557392  	-0.003536 
3834.486208  	-0.003843 
3836.415024  	-0.004596 
3838.343840  	-0.003770 
3840.272656  	-0.002810 
3842.201472  	-0.003053 
3844.130288  	-0.003129 
3846.059104  	-0.003165 
3847.987920  	-0.003566 
3849.916736  	-0.003978 
3851.845552  	-0.004739 
3853.774368  	-0.003027 
3855.703184  	-0.001793 
3857.632000  	-0.002648 
3859.560816  	-0.003525 
3861.489632  	-0.003664 
3863.418448  	-0.003318 
3865.347264  	-0.002676 
3867.276080  	-0.003077 
3869.204896  	-0.003119 
3871.133712  	-0.001507 
3873.062528  	-0.002375 
3874.991344  	-0.002620 
3876.920160  	-0.003180 
3878.848976  	-0.003482 
3880.777792  	-0.002303 
3882.706608  	-0.002129 
3884.635424  	-0.002781 
3886.564240  	-0.002254 
3888.493056  	-0.002995 
3890.421872  	-0.003375 
3892.350688  	-0.002464 
3894.279504  	-0.002617 
3896.208320  	-0.003083 
3898.137136  	-0.002883 
3900.065952  	-0.001985 
3901.994768  	-0.001620 
3903.923584  	-0.001363 
3905.852400  	-0.001506 
3907.781216  	-0.002715 
3909.710032  	-0.003595 
3911.638848  	-0.003721 
3913.567664  	-0.003526 
3915.496480  	-0.002840 
3917.425296  	-0.001792 
3919.354112  	-0.001777 
3921.282928  	-0.002157 
3923.211744  	-0.002381 
3925.140560  	-0.002240 
3927.069376  	-0.002717 
3928.998192  	-0.002970 
3930.927008  	-0.002258 
3932.855824  	-0.001720 
3934.784640  	-0.002546 
3936.713456  	-0.002965 
3938.642272  	-0.002773 
3940.571088  	-0.002800 
3942.499904  	-0.002134 
3944.428720  	-0.001918 
3946.357536  	-0.002217 
3948.286352  	-0.002013 
3950.215168  	-0.002447 
3952.143984  	-0.002990 
3954.072800  	-0.003149 
3956.001616  	-0.003128 
3957.930432  	-0.002947 
3959.859248  	-0.002710 
3961.788064  	-0.002603 
3963.716880  	-0.002866 
3965.645696  	-0.003341 
3967.574512  	-0.003251 
3969.503328  	-0.003106 
3971.432144  	-0.003139 
3973.360960  	-0.003017 
3975.289776  	-0.002837 
3977.218592  	-0.002940 
3979.147408  	-0.002966 
3981.076224  	-0.003011 
3983.005040  	-0.003181 
3984.933856  	-0.003152 
3986.862672  	-0.003171 
3988.791488  	-0.003312 
3990.720304  	-0.003181 
3992.649120  	-0.003157 
3994.577936  	-0.003353 
3996.506752  	-0.003593 
3998.435568  	-0.003567 
4000.364384  	-0.003434 