##TITLE=No Description
##DATA TYPE=INFRARED SPECTRUM
##XUNITS=1/CM
##YUNITS=Abs
399.264912  	0.609113 
401.193728  	0.614594 
403.122544  	0.609099 
405.051360  	0.580532 
406.980176  	0.566246 
408.908992  	0.562631 
410.837808  	0.572994 
412.766624  	0.575439 
414.695440  	0.577729 
416.624256  	0.571202 
418.553072  	0.567601 
420.481888  	0.559034 
422.410704  	0.557915 
424.339520  	0.547198 
426.268336  	0.540791 
428.197152  	0.538784 
430.125968  	0.538461 
432.054784  	0.534165 
433.983600  	0.529017 
435.912416  	0.522891 
437.841232  	0.526978 
439.770048  	0.534128 
441.698864  	0.531793 
443.627680  	0.517973 
445.556496  	0.519785 
447.485312  	0.520818 
449.414128  	0.518845 
451.342944  	0.512752 
453.271760  	0.514914 
455.200576  	0.511881 
457.129392  	0.513503 
459.058208  	0.505043 
460.987024  	0.506514 
462.915840  	0.509366 
464.844656  	0.514297 
466.773472  	0.512278 
468.702288  	0.511622 
470.631104  	0.509557 
472.559920  	0.509251 
474.488736  	0.505662 
476.417552  	0.504732 
478.346368  	0.505384 
480.275184  	0.505667 
482.204000  	0.503379 
484.132816  	0.504088 
486.061632  	0.501459 
487.990448  	0.504278 
489.919264  	0.502453 
491.848080  	0.499350 
493.776896  	0.492403 
495.705712  	0.491307 
497.634528  	0.492693 
499.563344  	0.494422 
501.492160  	0.494257 
503.420976  	0.493881 
505.349792  	0.490476 
507.278608  	0.490230 
509.207424  	0.487962 
511.136240  	0.488970 
513.065056  	0.491863 
514.993872  	0.492736 
516.922688  	0.489980 
518.851504  	0.490542 
520.780320  	0.487631 
522.709136  	0.487901 
524.637952  	0.487059 
526.566768  	0.485556 
528.495584  	0.481906 
530.424400  	0.481821 
532.353216  	0.479112 
534.282032  	0.474982 
536.210848  	0.470209 
538.139664  	0.466305 
540.068480  	0.460832 
541.997296  	0.457189 
543.926112  	0.453960 
545.854928  	0.454150 
547.783744  	0.450119 
549.712560  	0.445066 
551.641376  	0.440962 
553.570192  	0.439846 
555.499008  	0.437513 
557.427824  	0.434230 
559.356640  	0.429911 
561.285456  	0.427743 
563.214272  	0.423871 
565.143088  	0.420732 
567.071904  	0.416698 
569.000720  	0.413860 
570.929536  	0.410561 
572.858352  	0.407152 
574.787168  	0.404230 
576.715984  	0.401646 
578.644800  	0.398405 
580.573616  	0.395670 
582.502432  	0.391838 
584.431248  	0.389612 
586.360064  	0.387248 
588.288880  	0.385121 
590.217696  	0.382914 
592.146512  	0.381796 
594.075328  	0.378923 
596.004144  	0.376249 
597.932960  	0.374502 
599.861776  	0.374113 
601.790592  	0.372584 
603.719408  	0.371195 
605.648224  	0.369295 
607.577040  	0.368094 
609.505856  	0.366792 
611.434672  	0.366127 
613.363488  	0.363547 
615.292304  	0.361894 
617.221120  	0.360068 
619.149936  	0.358607 
621.078752  	0.356728 
623.007568  	0.354997 
624.936384  	0.352961 
626.865200  	0.351270 
628.794016  	0.349273 
630.722832  	0.347683 
632.651648  	0.345997 
634.580464  	0.345613 
636.509280  	0.345764 
638.438096  	0.344903 
640.366912  	0.344108 
642.295728  	0.342706 
644.224544  	0.340200 
646.153360  	0.337213 
648.082176  	0.333697 
650.010992  	0.331014 
651.939808  	0.327287 
653.868624  	0.324053 
655.797440  	0.320752 
657.726256  	0.317552 
659.655072  	0.313437 
661.583888  	0.310117 
663.512704  	0.307337 
665.441520  	0.304662 
667.370336  	0.298894 
669.299152  	0.295465 
671.227968  	0.294588 
673.156784  	0.291911 
675.085600  	0.289698 
677.014416  	0.288235 
678.943232  	0.285802 
680.872048  	0.284064 
682.800864  	0.282922 
684.729680  	0.281126 
686.658496  	0.278789 
688.587312  	0.277468 
690.516128  	0.275308 
692.444944  	0.273876 
694.373760  	0.272543 
696.302576  	0.271314 
698.231392  	0.269136 
700.160208  	0.266200 
702.089024  	0.263533 
704.017840  	0.261871 
705.946656  	0.259859 
707.875472  	0.257347 
709.804288  	0.254961 
711.733104  	0.253579 
713.661920  	0.251999 
715.590736  	0.251000 
717.519552  	0.249981 
719.448368  	0.249424 
721.377184  	0.249756 
723.306000  	0.250517 
725.234816  	0.250180 
727.163632  	0.248610 
729.092448  	0.246137 
731.021264  	0.244012 
732.950080  	0.241694 
734.878896  	0.238988 
736.807712  	0.236636 
738.736528  	0.234666 
740.665344  	0.232886 
742.594160  	0.231576 
744.522976  	0.230237 
746.451792  	0.228940 
748.380608  	0.227303 
750.309424  	0.226395 
752.238240  	0.225593 
754.167056  	0.224624 
756.095872  	0.223481 
758.024688  	0.222352 
759.953504  	0.221686 
761.882320  	0.221683 
763.811136  	0.221484 
765.739952  	0.220370 
767.668768  	0.218688 
769.597584  	0.217053 
771.526400  	0.216151 
773.455216  	0.217369 
775.384032  	0.219468 
777.312848  	0.221900 
779.241664  	0.224471 
781.170480  	0.224977 
783.099296  	0.221937 
785.028112  	0.217121 
786.956928  	0.212095 
788.885744  	0.208002 
790.814560  	0.204582 
792.743376  	0.201972 
794.672192  	0.199984 
796.601008  	0.198728 
798.529824  	0.196833 
800.458640  	0.193638 
802.387456  	0.190416 
804.316272  	0.188974 
806.245088  	0.188321 
808.173904  	0.187568 
810.102720  	0.186835 
812.031536  	0.186665 
813.960352  	0.186412 
815.889168  	0.185846 
817.817984  	0.185301 
819.746800  	0.184717 
821.675616  	0.183741 
823.604432  	0.183193 
825.533248  	0.182334 
827.462064  	0.180896 
829.390880  	0.179562 
831.319696  	0.178453 
833.248512  	0.177080 
835.177328  	0.175240 
837.106144  	0.172632 
839.034960  	0.169783 
840.963776  	0.167256 
842.892592  	0.164882 
844.821408  	0.162031 
846.750224  	0.159424 
848.679040  	0.157290 
850.607856  	0.155036 
852.536672  	0.153176 
854.465488  	0.151273 
856.394304  	0.149719 
858.323120  	0.148018 
860.251936  	0.145984 
862.180752  	0.143653 
864.109568  	0.141405 
866.038384  	0.139434 
867.967200  	0.137724 
869.896016  	0.136287 
871.824832  	0.134959 
873.753648  	0.134300 
875.682464  	0.134336 
877.611280  	0.133964 
879.540096  	0.133509 
881.468912  	0.134598 
883.397728  	0.135024 
885.326544  	0.134867 
887.255360  	0.134625 
889.184176  	0.133695 
891.112992  	0.131799 
893.041808  	0.130364 
894.970624  	0.128855 
896.899440  	0.126464 
898.828256  	0.123440 
900.757072  	0.120648 
902.685888  	0.118643 
904.614704  	0.117582 
906.543520  	0.117608 
908.472336  	0.118926 
910.401152  	0.120932 
912.329968  	0.123290 
914.258784  	0.125865 
916.187600  	0.128281 
918.116416  	0.129895 
920.045232  	0.130502 
921.974048  	0.130227 
923.902864  	0.129551 
925.831680  	0.128441 
927.760496  	0.127442 
929.689312  	0.126423 
931.618128  	0.126101 
933.546944  	0.126151 
935.475760  	0.125928 
937.404576  	0.125647 
939.333392  	0.125932 
941.262208  	0.126826 
943.191024  	0.128599 
945.119840  	0.131330 
947.048656  	0.134692 
948.977472  	0.139028 
950.906288  	0.144141 
952.835104  	0.149685 
954.763920  	0.155185 
956.692736  	0.160139 
958.621552  	0.164161 
960.550368  	0.166804 
962.479184  	0.167876 
964.408000  	0.166648 
966.336816  	0.163420 
968.265632  	0.158009 
970.194448  	0.151225 
972.123264  	0.143386 
974.052080  	0.135165 
975.980896  	0.127197 
977.909712  	0.119735 
979.838528  	0.113136 
981.767344  	0.107687 
983.696160  	0.103762 
985.624976  	0.101607 
987.553792  	0.101175 
989.482608  	0.102254 
991.411424  	0.104830 
993.340240  	0.108528 
995.269056  	0.113142 
997.197872  	0.118042 
999.126688  	0.122857 
1001.055504  	0.127648 
1002.984320  	0.132079 
1004.913136  	0.136231 
1006.841952  	0.139858 
1008.770768  	0.142842 
1010.699584  	0.144695 
1012.628400  	0.145664 
1014.557216  	0.145854 
1016.486032  	0.145992 
1018.414848  	0.145843 
1020.343664  	0.145784 
1022.272480  	0.145651 
1024.201296  	0.144532 
1026.130112  	0.140698 
1028.058928  	0.139087 
1029.987744  	0.142293 
1031.916560  	0.143542 
1033.845376  	0.142917 
1035.774192  	0.141016 
1037.703008  	0.140162 
1039.631824  	0.142957 
1041.560640  	0.146740 
1043.489456  	0.151949 
1045.418272  	0.158975 
1047.347088  	0.168020 
1049.275904  	0.178100 
1051.204720  	0.188151 
1053.133536  	0.197004 
1055.062352  	0.203994 
1056.991168  	0.207595 
1058.919984  	0.212274 
1060.848800  	0.216529 
1062.777616  	0.215971 
1064.706432  	0.209723 
1066.635248  	0.205127 
1068.564064  	0.206516 
1070.492880  	0.204595 
1072.421696  	0.198544 
1074.350512  	0.193089 
1076.279328  	0.189734 
1078.208144  	0.188420 
1080.136960  	0.188789 
1082.065776  	0.189943 
1083.994592  	0.190946 
1085.923408  	0.191997 
1087.852224  	0.192278 
1089.781040  	0.192089 
1091.709856  	0.191358 
1093.638672  	0.188386 
1095.567488  	0.182729 
1097.496304  	0.175887 
1099.425120  	0.168489 
1101.353936  	0.160782 
1103.282752  	0.152887 
1105.211568  	0.145170 
1107.140384  	0.137644 
1109.069200  	0.130114 
1110.998016  	0.123259 
1112.926832  	0.116906 
1114.855648  	0.110668 
1116.784464  	0.104358 
1118.713280  	0.098740 
1120.642096  	0.093567 
1122.570912  	0.088366 
1124.499728  	0.083492 
1126.428544  	0.079011 
1128.357360  	0.074882 
1130.286176  	0.071075 
1132.214992  	0.067768 
1134.143808  	0.064859 
1136.072624  	0.062359 
1138.001440  	0.059956 
1139.930256  	0.057551 
1141.859072  	0.055434 
1143.787888  	0.053467 
1145.716704  	0.051884 
1147.645520  	0.050438 
1149.574336  	0.049156 
1151.503152  	0.048134 
1153.431968  	0.047740 
1155.360784  	0.047678 
1157.289600  	0.048108 
1159.218416  	0.048883 
1161.147232  	0.050065 
1163.076048  	0.051127 
1165.004864  	0.052477 
1166.933680  	0.053802 
1168.862496  	0.055387 
1170.791312  	0.057382 
1172.720128  	0.059347 
1174.648944  	0.061095 
1176.577760  	0.063049 
1178.506576  	0.065043 
1180.435392  	0.066817 
1182.364208  	0.068485 
1184.293024  	0.070531 
1186.221840  	0.072730 
1188.150656  	0.075066 
1190.079472  	0.077837 
1192.008288  	0.081112 
1193.937104  	0.084828 
1195.865920  	0.089316 
1197.794736  	0.094004 
1199.723552  	0.099039 
1201.652368  	0.104352 
1203.581184  	0.109861 
1205.510000  	0.115192 
1207.438816  	0.120712 
1209.367632  	0.125921 
1211.296448  	0.130687 
1213.225264  	0.135032 
1215.154080  	0.138664 
1217.082896  	0.141394 
1219.011712  	0.143512 
1220.940528  	0.145468 
1222.869344  	0.147160 
1224.798160  	0.148304 
1226.726976  	0.148976 
1228.655792  	0.149762 
1230.584608  	0.150134 
1232.513424  	0.150061 
1234.442240  	0.149504 
1236.371056  	0.148157 
1238.299872  	0.145732 
1240.228688  	0.140596 
1242.157504  	0.135635 
1244.086320  	0.132192 
1246.015136  	0.126671 
1247.943952  	0.120112 
1249.872768  	0.113730 
1251.801584  	0.108468 
1253.730400  	0.103243 
1255.659216  	0.098270 
1257.588032  	0.093445 
1259.516848  	0.088870 
1261.445664  	0.084807 
1263.374480  	0.081311 
1265.303296  	0.078126 
1267.232112  	0.075604 
1269.160928  	0.073692 
1271.089744  	0.072466 
1273.018560  	0.071957 
1274.947376  	0.071755 
1276.876192  	0.071496 
1278.805008  	0.071029 
1280.733824  	0.069863 
1282.662640  	0.067662 
1284.591456  	0.064775 
1286.520272  	0.061927 
1288.449088  	0.059593 
1290.377904  	0.057572 
1292.306720  	0.056035 
1294.235536  	0.054310 
1296.164352  	0.051926 
1298.093168  	0.049003 
1300.021984  	0.046095 
1301.950800  	0.043368 
1303.879616  	0.041062 
1305.808432  	0.039172 
1307.737248  	0.037669 
1309.666064  	0.036225 
1311.594880  	0.035595 
1313.523696  	0.035321 
1315.452512  	0.034955 
1317.381328  	0.035171 
1319.310144  	0.035616 
1321.238960  	0.035895 
1323.167776  	0.036374 
1325.096592  	0.036802 
1327.025408  	0.037021 
1328.954224  	0.036821 
1330.883040  	0.036229 
1332.811856  	0.035309 
1334.740672  	0.034742 
1336.669488  	0.034524 
1338.598304  	0.034717 
1340.527120  	0.034085 
1342.455936  	0.032517 
1344.384752  	0.032000 
1346.313568  	0.032396 
1348.242384  	0.033197 
1350.171200  	0.034367 
1352.100016  	0.035700 
1354.028832  	0.037165 
1355.957648  	0.038653 
1357.886464  	0.040048 
1359.815280  	0.041435 
1361.744096  	0.043192 
1363.672912  	0.044047 
1365.601728  	0.043417 
1367.530544  	0.043266 
1369.459360  	0.042880 
1371.388176  	0.041469 
1373.316992  	0.040164 
1375.245808  	0.038004 
1377.174624  	0.035315 
1379.103440  	0.032886 
1381.032256  	0.030721 
1382.961072  	0.029341 
1384.889888  	0.029037 
1386.818704  	0.029820 
1388.747520  	0.029476 
1390.676336  	0.026918 
1392.605152  	0.022693 
1394.533968  	0.021954 
1396.462784  	0.026244 
1398.391600  	0.027540 
1400.320416  	0.026774 
1402.249232  	0.025550 
1404.178048  	0.025967 
1406.106864  	0.026708 
1408.035680  	0.027964 
1409.964496  	0.030183 
1411.893312  	0.032950 
1413.822128  	0.035617 
1415.750944  	0.038867 
1417.679760  	0.041481 
1419.608576  	0.042638 
1421.537392  	0.042127 
1423.466208  	0.042073 
1425.395024  	0.041321 
1427.323840  	0.039860 
1429.252656  	0.038888 
1431.181472  	0.038207 
1433.110288  	0.037674 
1435.039104  	0.037770 
1436.967920  	0.038740 
1438.896736  	0.038735 
1440.825552  	0.038629 
1442.754368  	0.039059 
1444.683184  	0.039056 
1446.612000  	0.039153 
1448.540816  	0.039055 
1450.469632  	0.038812 
1452.398448  	0.039041 
1454.327264  	0.039414 
1456.256080  	0.040938 
1458.184896  	0.042583 
1460.113712  	0.041964 
1462.042528  	0.041436 
1463.971344  	0.041720 
1465.900160  	0.043512 
1467.828976  	0.045029 
1469.757792  	0.046811 
1471.686608  	0.050095 
1473.615424  	0.055013 
1475.544240  	0.057677 
1477.473056  	0.059595 
1479.401872  	0.060231 
1481.330688  	0.061045 
1483.259504  	0.061252 
1485.188320  	0.061112 
1487.117136  	0.060539 
1489.045952  	0.060093 
1490.974768  	0.057590 
1492.903584  	0.053963 
1494.832400  	0.051019 
1496.761216  	0.048363 
1498.690032  	0.045570 
1500.618848  	0.043451 
1502.547664  	0.041007 
1504.476480  	0.038410 
1506.405296  	0.038790 
1508.334112  	0.040788 
1510.262928  	0.038685 
1512.191744  	0.036590 
1514.120560  	0.035286 
1516.049376  	0.035652 
1517.978192  	0.035792 
1519.907008  	0.035857 
1521.835824  	0.038012 
1523.764640  	0.039999 
1525.693456  	0.042398 
1527.622272  	0.044362 
1529.551088  	0.044772 
1531.479904  	0.044891 
1533.408720  	0.044790 
1535.337536  	0.043592 
1537.266352  	0.040989 
1539.195168  	0.038055 
1541.123984  	0.037131 
1543.052800  	0.037749 
1544.981616  	0.037333 
1546.910432  	0.035389 
1548.839248  	0.034733 
1550.768064  	0.035152 
1552.696880  	0.034269 
1554.625696  	0.034819 
1556.554512  	0.034069 
1558.483328  	0.034687 
1560.412144  	0.039360 
1562.340960  	0.040698 
1564.269776  	0.042208 
1566.198592  	0.045246 
1568.127408  	0.047588 
1570.056224  	0.052172 
1571.985040  	0.055609 
1573.913856  	0.057002 
1575.842672  	0.058394 
1577.771488  	0.060970 
1579.700304  	0.060959 
1581.629120  	0.060860 
1583.557936  	0.060978 
1585.486752  	0.062113 
1587.415568  	0.064122 
1589.344384  	0.067512 
1591.273200  	0.071364 
1593.202016  	0.075915 
1595.130832  	0.080411 
1597.059648  	0.084781 
1598.988464  	0.088129 
1600.917280  	0.090976 
1602.846096  	0.092591 
1604.774912  	0.093531 
1606.703728  	0.093434 
1608.632544  	0.093132 
1610.561360  	0.092240 
1612.490176  	0.091725 
1614.418992  	0.090848 
1616.347808  	0.091562 
1618.276624  	0.094503 
1620.205440  	0.097343 
1622.134256  	0.100176 
1624.063072  	0.105800 
1625.991888  	0.110769 
1627.920704  	0.116684 
1629.849520  	0.123189 
1631.778336  	0.128724 
1633.707152  	0.132830 
1635.635968  	0.139409 
1637.564784  	0.146464 
1639.493600  	0.150305 
1641.422416  	0.153382 
1643.351232  	0.155670 
1645.280048  	0.156684 
1647.208864  	0.158749 
1649.137680  	0.159289 
1651.066496  	0.157801 
1652.995312  	0.156414 
1654.924128  	0.158102 
1656.852944  	0.156510 
1658.781760  	0.154850 
1660.710576  	0.153198 
1662.639392  	0.151851 
1664.568208  	0.150720 
1666.497024  	0.149356 
1668.425840  	0.147798 
1670.354656  	0.146893 
1672.283472  	0.145900 
1674.212288  	0.144987 
1676.141104  	0.145221 
1678.069920  	0.145558 
1679.998736  	0.146056 
1681.927552  	0.145684 
1683.856368  	0.145344 
1685.785184  	0.147122 
1687.714000  	0.146769 
1689.642816  	0.145783 
1691.571632  	0.143845 
1693.500448  	0.141523 
1695.429264  	0.138879 
1697.358080  	0.136673 
1699.286896  	0.133190 
1701.215712  	0.129922 
1703.144528  	0.126711 
1705.073344  	0.122673 
1707.002160  	0.118166 
1708.930976  	0.113902 
1710.859792  	0.109161 
1712.788608  	0.104041 
1714.717424  	0.098762 
1716.646240  	0.092768 
1718.575056  	0.086382 
1720.503872  	0.080254 
1722.432688  	0.074814 
1724.361504  	0.068737 
1726.290320  	0.062995 
1728.219136  	0.058017 
1730.147952  	0.053799 
1732.076768  	0.049198 
1734.005584  	0.045000 
1735.934400  	0.040102 
1737.863216  	0.036308 
1739.792032  	0.032234 
1741.720848  	0.029625 
1743.649664  	0.027429 
1745.578480  	0.024746 
1747.507296  	0.022355 
1749.436112  	0.021266 
1751.364928  	0.020171 
1753.293744  	0.018314 
1755.222560  	0.016461 
1757.151376  	0.016064 
1759.080192  	0.014876 
1761.009008  	0.014237 
1762.937824  	0.013928 
1764.866640  	0.013252 
1766.795456  	0.012805 
1768.724272  	0.012965 
1770.653088  	0.011362 
1772.581904  	0.011261 
1774.510720  	0.011695 
1776.439536  	0.011783 
1778.368352  	0.011432 
1780.297168  	0.011487 
1782.225984  	0.011059 
1784.154800  	0.010952 
1786.083616  	0.010830 
1788.012432  	0.010274 
1789.941248  	0.010038 
1791.870064  	0.010615 
1793.798880  	0.010535 
1795.727696  	0.010561 
1797.656512  	0.010079 
1799.585328  	0.009805 
1801.514144  	0.010017 
1803.442960  	0.009548 
1805.371776  	0.008876 
1807.300592  	0.008966 
1809.229408  	0.008666 
1811.158224  	0.008826 
1813.087040  	0.008678 
1815.015856  	0.008335 
1816.944672  	0.008296 
1818.873488  	0.008526 
1820.802304  	0.008431 
1822.731120  	0.008495 
1824.659936  	0.008782 
1826.588752  	0.008752 
1828.517568  	0.008126 
1830.446384  	0.008894 
1832.375200  	0.008706 
1834.304016  	0.008280 
1836.232832  	0.008054 
1838.161648  	0.008376 
1840.090464  	0.008173 
1842.019280  	0.008037 
1843.948096  	0.008173 
1845.876912  	0.008724 
1847.805728  	0.008651 
1849.734544  	0.008530 
1851.663360  	0.007985 
1853.592176  	0.007948 
1855.520992  	0.007690 
1857.449808  	0.008184 
1859.378624  	0.008207 
1861.307440  	0.008027 
1863.236256  	0.007524 
1865.165072  	0.007655 
1867.093888  	0.007825 
1869.022704  	0.008643 
1870.951520  	0.008364 
1872.880336  	0.008024 
1874.809152  	0.007528 
1876.737968  	0.007767 
1878.666784  	0.007788 
1880.595600  	0.007872 
1882.524416  	0.007571 
1884.453232  	0.007356 
1886.382048  	0.007168 
1888.310864  	0.007513 
1890.239680  	0.008019 
1892.168496  	0.008010 
1894.097312  	0.007449 
1896.026128  	0.007451 
1897.954944  	0.007087 
1899.883760  	0.007089 
1901.812576  	0.007017 
1903.741392  	0.007164 
1905.670208  	0.006762 
1907.599024  	0.006760 
1909.527840  	0.006882 
1911.456656  	0.007212 
1913.385472  	0.007237 
1915.314288  	0.007320 
1917.243104  	0.007107 
1919.171920  	0.007388 
1921.100736  	0.007461 
1923.029552  	0.008029 
1924.958368  	0.006720 
1926.887184  	0.006434 
1928.816000  	0.006304 
1930.744816  	0.006341 
1932.673632  	0.006364 
1934.602448  	0.006863 
1936.531264  	0.006865 
1938.460080  	0.006610 
1940.388896  	0.006280 
1942.317712  	0.006977 
1944.246528  	0.006402 
1946.175344  	0.006216 
1948.104160  	0.005777 
1950.032976  	0.006505 
1951.961792  	0.006644 
1953.890608  	0.006505 
1955.819424  	0.005995 
1957.748240  	0.006713 
1959.677056  	0.006965 
1961.605872  	0.006816 
1963.534688  	0.006397 
1965.463504  	0.007599 
1967.392320  	0.006852 
1969.321136  	0.005992 
1971.249952  	0.006059 
1973.178768  	0.007238 
1975.107584  	0.006849 
1977.036400  	0.007203 
1978.965216  	0.008818 
1980.894032  	0.008436 
1982.822848  	0.006471 
1984.751664  	0.006497 
1986.680480  	0.006991 
1988.609296  	0.007218 
1990.538112  	0.006983 
1992.466928  	0.007837 
1994.395744  	0.007325 
1996.324560  	0.007195 
1998.253376  	0.006512 
2000.182192  	0.006108 
2002.111008  	0.006046 
2004.039824  	0.006205 
2005.968640  	0.006069 
2007.897456  	0.007246 
2009.826272  	0.006800 
2011.755088  	0.005892 
2013.683904  	0.006280 
2015.612720  	0.007361 
2017.541536  	0.006851 
2019.470352  	0.006288 
2021.399168  	0.005444 
2023.327984  	0.006767 
2025.256800  	0.007183 
2027.185616  	0.006149 
2029.114432  	0.005725 
2031.043248  	0.007437 
2032.972064  	0.007187 
2034.900880  	0.007319 
2036.829696  	0.007612 
2038.758512  	0.007785 
2040.687328  	0.006811 
2042.616144  	0.006138 
2044.544960  	0.006242 
2046.473776  	0.007362 
2048.402592  	0.007537 
2050.331408  	0.008206 
2052.260224  	0.007877 
2054.189040  	0.007398 
2056.117856  	0.006464 
2058.046672  	0.006141 
2059.975488  	0.006284 
2061.904304  	0.007086 
2063.833120  	0.007870 
2065.761936  	0.008310 
2067.690752  	0.007865 
2069.619568  	0.007654 
2071.548384  	0.006803 
2073.477200  	0.006806 
2075.406016  	0.007332 
2077.334832  	0.007455 
2079.263648  	0.006698 
2081.192464  	0.007192 
2083.121280  	0.007855 
2085.050096  	0.007724 
2086.978912  	0.007602 
2088.907728  	0.007755 
2090.836544  	0.006987 
2092.765360  	0.006362 
2094.694176  	0.006568 
2096.622992  	0.006980 
2098.551808  	0.006772 
2100.480624  	0.007110 
2102.409440  	0.007001 
2104.338256  	0.007375 
2106.267072  	0.007803 
2108.195888  	0.008021 
2110.124704  	0.008158 
2112.053520  	0.008277 
2113.982336  	0.007959 
2115.911152  	0.007870 
2117.839968  	0.007187 
2119.768784  	0.006760 
2121.697600  	0.006847 
2123.626416  	0.006613 
2125.555232  	0.006190 
2127.484048  	0.006428 
2129.412864  	0.006333 
2131.341680  	0.005646 
2133.270496  	0.005822 
2135.199312  	0.006515 
2137.128128  	0.006649 
2139.056944  	0.006786 
2140.985760  	0.006346 
2142.914576  	0.006302 
2144.843392  	0.006021 
2146.772208  	0.007232 
2148.701024  	0.007125 
2150.629840  	0.006307 
2152.558656  	0.005573 
2154.487472  	0.004725 
2156.416288  	0.003981 
2158.345104  	0.006797 
2160.273920  	0.009746 
2162.202736  	0.009858 
2164.131552  	0.008806 
2166.060368  	0.010004 
2167.989184  	0.009590 
2169.918000  	0.009261 
2171.846816  	0.008272 
2173.775632  	0.007943 
2175.704448  	0.009251 
2177.633264  	0.010081 
2179.562080  	0.009424 
2181.490896  	0.008224 
2183.419712  	0.007454 
2185.348528  	0.008876 
2187.277344  	0.008661 
2189.206160  	0.007873 
2191.134976  	0.008981 
2193.063792  	0.010838 
2194.992608  	0.010564 
2196.921424  	0.009610 
2198.850240  	0.009604 
2200.779056  	0.009440 
2202.707872  	0.009147 
2204.636688  	0.009197 
2206.565504  	0.008847 
2208.494320  	0.009056 
2210.423136  	0.007947 
2212.351952  	0.007991 
2214.280768  	0.008384 
2216.209584  	0.008681 
2218.138400  	0.008679 
2220.067216  	0.008602 
2221.996032  	0.008573 
2223.924848  	0.008395 
2225.853664  	0.008868 
2227.782480  	0.009291 
2229.711296  	0.009030 
2231.640112  	0.008652 
2233.568928  	0.008582 
2235.497744  	0.009036 
2237.426560  	0.008375 
2239.355376  	0.007967 
2241.284192  	0.007853 
2243.213008  	0.008166 
2245.141824  	0.008300 
2247.070640  	0.007845 
2248.999456  	0.007810 
2250.928272  	0.008506 
2252.857088  	0.008104 
2254.785904  	0.007840 
2256.714720  	0.008244 
2258.643536  	0.008705 
2260.572352  	0.008548 
2262.501168  	0.008463 
2264.429984  	0.008478 
2266.358800  	0.008921 
2268.287616  	0.009012 
2270.216432  	0.008778 
2272.145248  	0.008316 
2274.074064  	0.008577 
2276.002880  	0.008738 
2277.931696  	0.009083 
2279.860512  	0.009374 
2281.789328  	0.009654 
2283.718144  	0.009775 
2285.646960  	0.010062 
2287.575776  	0.010011 
2289.504592  	0.009627 
2291.433408  	0.009208 
2293.362224  	0.009169 
2295.291040  	0.009276 
2297.219856  	0.009653 
2299.148672  	0.009542 
2301.077488  	0.009319 
2303.006304  	0.009539 
2304.935120  	0.009598 
2306.863936  	0.009276 
2308.792752  	0.009094 
2310.721568  	0.008911 
2312.650384  	0.008519 
2314.579200  	0.007743 
2316.508016  	0.007135 
2318.436832  	0.006388 
2320.365648  	0.005682 
2322.294464  	0.004828 
2324.223280  	0.003432 
2326.152096  	0.001506 
2328.080912  	0.000301 
2330.009728  	-0.000702 
2331.938544  	-0.001503 
2333.867360  	-0.002671 
2335.796176  	-0.003775 
2337.724992  	-0.004359 
2339.653808  	-0.004506 
2341.582624  	-0.004399 
2343.511440  	-0.002834 
2345.440256  	-0.000068 
2347.369072  	0.002698 
2349.297888  	0.002768 
2351.226704  	-0.000012 
2353.155520  	-0.003013 
2355.084336  	-0.005729 
2357.013152  	-0.007953 
2358.941968  	-0.009059 
2360.870784  	-0.009677 
2362.799600  	-0.008928 
2364.728416  	-0.007641 
2366.657232  	-0.005656 
2368.586048  	-0.003426 
2370.514864  	-0.000555 
2372.443680  	0.002086 
2374.372496  	0.004693 
2376.301312  	0.006591 
2378.230128  	0.007878 
2380.158944  	0.008669 
2382.087760  	0.009237 
2384.016576  	0.009447 
2385.945392  	0.009482 
2387.874208  	0.009214 
2389.803024  	0.008838 
2391.731840  	0.008527 
2393.660656  	0.008666 
2395.589472  	0.008811 
2397.518288  	0.008946 
2399.447104  	0.008883 
2401.375920  	0.008752 
2403.304736  	0.008840 
2405.233552  	0.008950 
2407.162368  	0.009168 
2409.091184  	0.009212 
2411.020000  	0.009198 
2412.948816  	0.009437 
2414.877632  	0.009376 
2416.806448  	0.009360 
2418.735264  	0.009626 
2420.664080  	0.009417 
2422.592896  	0.009095 
2424.521712  	0.009249 
2426.450528  	0.009428 
2428.379344  	0.009466 
2430.308160  	0.009503 
2432.236976  	0.009685 
2434.165792  	0.009920 
2436.094608  	0.010214 
2438.023424  	0.010279 
2439.952240  	0.010446 
2441.881056  	0.010613 
2443.809872  	0.010577 
2445.738688  	0.010596 
2447.667504  	0.010640 
2449.596320  	0.010400 
2451.525136  	0.010321 
2453.453952  	0.010296 
2455.382768  	0.010628 
2457.311584  	0.010924 
2459.240400  	0.010739 
2461.169216  	0.010579 
2463.098032  	0.010541 
2465.026848  	0.010512 
2466.955664  	0.010562 
2468.884480  	0.010533 
2470.813296  	0.010576 
2472.742112  	0.010395 
2474.670928  	0.010364 
2476.599744  	0.010590 
2478.528560  	0.010845 
2480.457376  	0.011008 
2482.386192  	0.010945 
2484.315008  	0.010825 
2486.243824  	0.010846 
2488.172640  	0.010849 
2490.101456  	0.010964 
2492.030272  	0.011323 
2493.959088  	0.011331 
2495.887904  	0.010989 
2497.816720  	0.011056 
2499.745536  	0.011226 
2501.674352  	0.011395 
2503.603168  	0.011518 
2505.531984  	0.011691 
2507.460800  	0.011396 
2509.389616  	0.011050 
2511.318432  	0.010929 
2513.247248  	0.011172 
2515.176064  	0.011362 
2517.104880  	0.011691 
2519.033696  	0.011864 
2520.962512  	0.011769 
2522.891328  	0.011948 
2524.820144  	0.012204 
2526.748960  	0.012154 
2528.677776  	0.012206 
2530.606592  	0.012388 
2532.535408  	0.012433 
2534.464224  	0.012525 
2536.393040  	0.012350 
2538.321856  	0.012074 
2540.250672  	0.012314 
2542.179488  	0.012450 
2544.108304  	0.012517 
2546.037120  	0.012463 
2547.965936  	0.012763 
2549.894752  	0.012998 
2551.823568  	0.012910 
2553.752384  	0.012851 
2555.681200  	0.012804 
2557.610016  	0.012877 
2559.538832  	0.012993 
2561.467648  	0.013084 
2563.396464  	0.013409 
2565.325280  	0.013631 
2567.254096  	0.013613 
2569.182912  	0.013439 
2571.111728  	0.013386 
2573.040544  	0.013267 
2574.969360  	0.013227 
2576.898176  	0.013516 
2578.826992  	0.013912 
2580.755808  	0.013842 
2582.684624  	0.013741 
2584.613440  	0.013622 
2586.542256  	0.013799 
2588.471072  	0.013967 
2590.399888  	0.013906 
2592.328704  	0.013895 
2594.257520  	0.013997 
2596.186336  	0.014205 
2598.115152  	0.014422 
2600.043968  	0.014360 
2601.972784  	0.014332 
2603.901600  	0.014455 
2605.830416  	0.014557 
2607.759232  	0.014345 
2609.688048  	0.014394 
2611.616864  	0.014590 
2613.545680  	0.014763 
2615.474496  	0.014806 
2617.403312  	0.014776 
2619.332128  	0.014817 
2621.260944  	0.014869 
2623.189760  	0.014977 
2625.118576  	0.015055 
2627.047392  	0.015081 
2628.976208  	0.015463 
2630.905024  	0.015704 
2632.833840  	0.015859 
2634.762656  	0.015948 
2636.691472  	0.015907 
2638.620288  	0.015841 
2640.549104  	0.015896 
2642.477920  	0.015990 
2644.406736  	0.016008 
2646.335552  	0.016250 
2648.264368  	0.016470 
2650.193184  	0.016495 
2652.122000  	0.016558 
2654.050816  	0.016690 
2655.979632  	0.016605 
2657.908448  	0.016565 
2659.837264  	0.016717 
2661.766080  	0.016756 
2663.694896  	0.016724 
2665.623712  	0.016634 
2667.552528  	0.016592 
2669.481344  	0.016700 
2671.410160  	0.016941 
2673.338976  	0.017153 
2675.267792  	0.017213 
2677.196608  	0.017266 
2679.125424  	0.017462 
2681.054240  	0.017538 
2682.983056  	0.017577 
2684.911872  	0.017664 
2686.840688  	0.017740 
2688.769504  	0.017850 
2690.698320  	0.017955 
2692.627136  	0.018076 
2694.555952  	0.018120 
2696.484768  	0.018040 
2698.413584  	0.018091 
2700.342400  	0.018116 
2702.271216  	0.018207 
2704.200032  	0.018416 
2706.128848  	0.018554 
2708.057664  	0.018598 
2709.986480  	0.018624 
2711.915296  	0.018702 
2713.844112  	0.018829 
2715.772928  	0.018924 
2717.701744  	0.019043 
2719.630560  	0.019002 
2721.559376  	0.018976 
2723.488192  	0.019102 
2725.417008  	0.019312 
2727.345824  	0.019414 
2729.274640  	0.019365 
2731.203456  	0.019304 
2733.132272  	0.019416 
2735.061088  	0.019586 
2736.989904  	0.019622 
2738.918720  	0.019564 
2740.847536  	0.019542 
2742.776352  	0.019549 
2744.705168  	0.019720 
2746.633984  	0.019839 
2748.562800  	0.019941 
2750.491616  	0.020051 
2752.420432  	0.020042 
2754.349248  	0.019982 
2756.278064  	0.019949 
2758.206880  	0.019931 
2760.135696  	0.020054 
2762.064512  	0.020068 
2763.993328  	0.020058 
2765.922144  	0.020085 
2767.850960  	0.020108 
2769.779776  	0.020156 
2771.708592  	0.020094 
2773.637408  	0.020031 
2775.566224  	0.020077 
2777.495040  	0.020067 
2779.423856  	0.020066 
2781.352672  	0.020224 
2783.281488  	0.020335 
2785.210304  	0.020237 
2787.139120  	0.020235 
2789.067936  	0.020332 
2790.996752  	0.020359 
2792.925568  	0.020401 
2794.854384  	0.020487 
2796.783200  	0.020558 
2798.712016  	0.020389 
2800.640832  	0.020321 
2802.569648  	0.020479 
2804.498464  	0.020550 
2806.427280  	0.020524 
2808.356096  	0.020555 
2810.284912  	0.020666 
2812.213728  	0.020593 
2814.142544  	0.020626 
2816.071360  	0.020776 
2818.000176  	0.020550 
2819.928992  	0.020215 
2821.857808  	0.020169 
2823.786624  	0.020163 
2825.715440  	0.020062 
2827.644256  	0.019812 
2829.573072  	0.019658 
2831.501888  	0.019489 
2833.430704  	0.019246 
2835.359520  	0.018915 
2837.288336  	0.018526 
2839.217152  	0.018077 
2841.145968  	0.017718 
2843.074784  	0.017508 
2845.003600  	0.017297 
2846.932416  	0.017073 
2848.861232  	0.016907 
2850.790048  	0.016391 
2852.718864  	0.015521 
2854.647680  	0.014590 
2856.576496  	0.013834 
2858.505312  	0.012949 
2860.434128  	0.011907 
2862.362944  	0.010811 
2864.291760  	0.009570 
2866.220576  	0.008448 
2868.149392  	0.007900 
2870.078208  	0.007773 
2872.007024  	0.007605 
2873.935840  	0.007439 
2875.864656  	0.007217 
2877.793472  	0.006838 
2879.722288  	0.006138 
2881.651104  	0.005130 
2883.579920  	0.004454 
2885.508736  	0.004385 
2887.437552  	0.004701 
2889.366368  	0.004642 
2891.295184  	0.004189 
2893.224000  	0.003961 
2895.152816  	0.004083 
2897.081632  	0.003558 
2899.010448  	0.001318 
2900.939264  	-0.000531 
2902.868080  	0.001085 
2904.796896  	0.002904 
2906.725712  	0.003605 
2908.654528  	0.004056 
2910.583344  	0.004507 
2912.512160  	0.005836 
2914.440976  	0.007656 
2916.369792  	0.008709 
2918.298608  	0.009203 
2920.227424  	0.009648 
2922.156240  	0.010193 
2924.085056  	0.010757 
2926.013872  	0.011382 
2927.942688  	0.012051 
2929.871504  	0.012797 
2931.800320  	0.013610 
2933.729136  	0.014168 
2935.657952  	0.014240 
2937.586768  	0.014489 
2939.515584  	0.014622 
2941.444400  	0.014562 
2943.373216  	0.014494 
2945.302032  	0.014510 
2947.230848  	0.014549 
2949.159664  	0.014054 
2951.088480  	0.013031 
2953.017296  	0.012285 
2954.946112  	0.011329 
2956.874928  	0.010116 
2958.803744  	0.009151 
2960.732560  	0.008430 
2962.661376  	0.007654 
2964.590192  	0.006402 
2966.519008  	0.004814 
2968.447824  	0.003340 
2970.376640  	0.002309 
2972.305456  	0.001743 
2974.234272  	0.001876 
2976.163088  	0.002070 
2978.091904  	0.002112 
2980.020720  	0.002142 
2981.949536  	0.002258 
2983.878352  	0.001596 
2985.807168  	0.000285 
2987.735984  	-0.000601 
2989.664800  	0.000273 
2991.593616  	0.004252 
2993.522432  	0.006423 
2995.451248  	0.007023 
2997.380064  	0.007976 
2999.308880  	0.009506 
3001.237696  	0.011272 
3003.166512  	0.012876 
3005.095328  	0.014604 
3007.024144  	0.016404 
3008.952960  	0.018056 
3010.881776  	0.019862 
3012.810592  	0.021599 
3014.739408  	0.022932 
3016.668224  	0.024429 
3018.597040  	0.025882 
3020.525856  	0.026954 
3022.454672  	0.028155 
3024.383488  	0.029437 
3026.312304  	0.030609 
3028.241120  	0.031651 
3030.169936  	0.032558 
3032.098752  	0.033598 
3034.027568  	0.034116 
3035.956384  	0.034561 
3037.885200  	0.035242 
3039.814016  	0.036023 
3041.742832  	0.036758 
3043.671648  	0.037311 
3045.600464  	0.037716 
3047.529280  	0.038068 
3049.458096  	0.038484 
3051.386912  	0.038695 
3053.315728  	0.038966 
3055.244544  	0.039507 
3057.173360  	0.040087 
3059.102176  	0.040313 
3061.030992  	0.040431 
3062.959808  	0.040800 
3064.888624  	0.041310 
3066.817440  	0.041719 
3068.746256  	0.041953 
3070.675072  	0.042210 
3072.603888  	0.042591 
3074.532704  	0.043081 
3076.461520  	0.043483 
3078.390336  	0.043730 
3080.319152  	0.044183 
3082.247968  	0.044659 
3084.176784  	0.045049 
3086.105600  	0.045217 
3088.034416  	0.045534 
3089.963232  	0.045992 
3091.892048  	0.046423 
3093.820864  	0.046769 
3095.749680  	0.047123 
3097.678496  	0.047122 
3099.607312  	0.047466 
3101.536128  	0.047939 
3103.464944  	0.048209 
3105.393760  	0.048674 
3107.322576  	0.049083 
3109.251392  	0.049240 
3111.180208  	0.049504 
3113.109024  	0.049765 
3115.037840  	0.050024 
3116.966656  	0.050476 
3118.895472  	0.050755 
3120.824288  	0.050877 
3122.753104  	0.051183 
3124.681920  	0.051475 
3126.610736  	0.051602 
3128.539552  	0.051676 
3130.468368  	0.051742 
3132.397184  	0.051979 
3134.326000  	0.052361 
3136.254816  	0.052550 
3138.183632  	0.052691 
3140.112448  	0.052875 
3142.041264  	0.053049 
3143.970080  	0.053310 
3145.898896  	0.053565 
3147.827712  	0.053752 
3149.756528  	0.053991 
3151.685344  	0.054386 
3153.614160  	0.054840 
3155.542976  	0.054981 
3157.471792  	0.055084 
3159.400608  	0.055564 
3161.329424  	0.055936 
3163.258240  	0.056228 
3165.187056  	0.056479 
3167.115872  	0.056576 
3169.044688  	0.056746 
3170.973504  	0.056945 
3172.902320  	0.057180 
3174.831136  	0.057453 
3176.759952  	0.057547 
3178.688768  	0.057768 
3180.617584  	0.057913 
3182.546400  	0.057840 
3184.475216  	0.057988 
3186.404032  	0.058116 
3188.332848  	0.058248 
3190.261664  	0.058512 
3192.190480  	0.058544 
3194.119296  	0.058276 
3196.048112  	0.058267 
3197.976928  	0.058506 
3199.905744  	0.058494 
3201.834560  	0.058319 
3203.763376  	0.058331 
3205.692192  	0.058249 
3207.621008  	0.058184 
3209.549824  	0.058126 
3211.478640  	0.057954 
3213.407456  	0.057768 
3215.336272  	0.057833 
3217.265088  	0.057647 
3219.193904  	0.057249 
3221.122720  	0.057006 
3223.051536  	0.056946 
3224.980352  	0.056807 
3226.909168  	0.056613 
3228.837984  	0.056370 
3230.766800  	0.056395 
3232.695616  	0.056578 
3234.624432  	0.056489 
3236.553248  	0.056381 
3238.482064  	0.056225 
3240.410880  	0.056100 
3242.339696  	0.056127 
3244.268512  	0.056237 
3246.197328  	0.056245 
3248.126144  	0.056057 
3250.054960  	0.056037 
3251.983776  	0.056023 
3253.912592  	0.056183 
3255.841408  	0.056405 
3257.770224  	0.056524 
3259.699040  	0.056565 
3261.627856  	0.056570 
3263.556672  	0.056685 
3265.485488  	0.056779 
3267.414304  	0.056968 
3269.343120  	0.057236 
3271.271936  	0.057420 
3273.200752  	0.057574 
3275.129568  	0.057835 
3277.058384  	0.057960 
3278.987200  	0.058004 
3280.916016  	0.058014 
3282.844832  	0.058075 
3284.773648  	0.058255 
3286.702464  	0.058279 
3288.631280  	0.058443 
3290.560096  	0.058754 
3292.488912  	0.058944 
3294.417728  	0.058905 
3296.346544  	0.059012 
3298.275360  	0.059261 
3300.204176  	0.059604 
3302.132992  	0.059825 
3304.061808  	0.059913 
3305.990624  	0.060166 
3307.919440  	0.060308 
3309.848256  	0.060376 
3311.777072  	0.060349 
3313.705888  	0.060599 
3315.634704  	0.061062 
3317.563520  	0.061456 
3319.492336  	0.061484 
3321.421152  	0.061382 
3323.349968  	0.061649 
3325.278784  	0.061934 
3327.207600  	0.061882 
3329.136416  	0.061873 
3331.065232  	0.061887 
3332.994048  	0.061998 
3334.922864  	0.062036 
3336.851680  	0.062074 
3338.780496  	0.062113 
3340.709312  	0.061908 
3342.638128  	0.061815 
3344.566944  	0.061685 
3346.495760  	0.061346 
3348.424576  	0.061193 
3350.353392  	0.061192 
3352.282208  	0.060928 
3354.211024  	0.060790 
3356.139840  	0.060753 
3358.068656  	0.060457 
3359.997472  	0.060082 
3361.926288  	0.059850 
3363.855104  	0.059628 
3365.783920  	0.059440 
3367.712736  	0.059252 
3369.641552  	0.058784 
3371.570368  	0.058339 
3373.499184  	0.058129 
3375.428000  	0.057896 
3377.356816  	0.057671 
3379.285632  	0.057502 
3381.214448  	0.057327 
3383.143264  	0.057101 
3385.072080  	0.056828 
3387.000896  	0.056369 
3388.929712  	0.056223 
3390.858528  	0.056098 
3392.787344  	0.055666 
3394.716160  	0.055113 
3396.644976  	0.054939 
3398.573792  	0.054811 
3400.502608  	0.054308 
3402.431424  	0.053832 
3404.360240  	0.053496 
3406.289056  	0.053174 
3408.217872  	0.052827 
3410.146688  	0.052598 
3412.075504  	0.052664 
3414.004320  	0.052524 
3415.933136  	0.051950 
3417.861952  	0.051514 
3419.790768  	0.051520 
3421.719584  	0.051310 
3423.648400  	0.050656 
3425.577216  	0.050279 
3427.506032  	0.050066 
3429.434848  	0.049582 
3431.363664  	0.049110 
3433.292480  	0.048804 
3435.221296  	0.048667 
3437.150112  	0.048372 
3439.078928  	0.048085 
3441.007744  	0.047910 
3442.936560  	0.047834 
3444.865376  	0.047243 
3446.794192  	0.046728 
3448.723008  	0.046442 
3450.651824  	0.045954 
3452.580640  	0.045518 
3454.509456  	0.044925 
3456.438272  	0.044580 
3458.367088  	0.044351 
3460.295904  	0.044119 
3462.224720  	0.043748 
3464.153536  	0.043153 
3466.082352  	0.042714 
3468.011168  	0.042352 
3469.939984  	0.041779 
3471.868800  	0.041130 
3473.797616  	0.040741 
3475.726432  	0.040360 
3477.655248  	0.039874 
3479.584064  	0.039633 
3481.512880  	0.039456 
3483.441696  	0.038981 
3485.370512  	0.038225 
3487.299328  	0.037813 
3489.228144  	0.037375 
3491.156960  	0.036653 
3493.085776  	0.036299 
3495.014592  	0.035865 
3496.943408  	0.035514 
3498.872224  	0.035100 
3500.801040  	0.034925 
3502.729856  	0.034856 
3504.658672  	0.034348 
3506.587488  	0.033213 
3508.516304  	0.033021 
3510.445120  	0.033246 
3512.373936  	0.032737 
3514.302752  	0.032250 
3516.231568  	0.031893 
3518.160384  	0.031456 
3520.089200  	0.031039 
3522.018016  	0.031028 
3523.946832  	0.031529 
3525.875648  	0.031131 
3527.804464  	0.030570 
3529.733280  	0.030064 
3531.662096  	0.029350 
3533.590912  	0.028616 
3535.519728  	0.028643 
3537.448544  	0.028699 
3539.377360  	0.027883 
3541.306176  	0.027252 
3543.234992  	0.027073 
3545.163808  	0.027846 
3547.092624  	0.027842 
3549.021440  	0.026345 
3550.950256  	0.025516 
3552.879072  	0.025949 
3554.807888  	0.025539 
3556.736704  	0.024721 
3558.665520  	0.024437 
3560.594336  	0.024435 
3562.523152  	0.023956 
3564.451968  	0.023833 
3566.380784  	0.025231 
3568.309600  	0.025743 
3570.238416  	0.023465 
3572.167232  	0.021796 
3574.096048  	0.021373 
3576.024864  	0.021055 
3577.953680  	0.020663 
3579.882496  	0.020559 
3581.811312  	0.020183 
3583.740128  	0.019297 
3585.668944  	0.019140 
3587.597760  	0.020859 
3589.526576  	0.020268 
3591.455392  	0.017872 
3593.384208  	0.017385 
3595.313024  	0.017531 
3597.241840  	0.016837 
3599.170656  	0.015779 
3601.099472  	0.015460 
3603.028288  	0.015030 
3604.957104  	0.013936 
3606.885920  	0.013608 
3608.814736  	0.014541 
3610.743552  	0.013802 
3612.672368  	0.012985 
3614.601184  	0.012729 
3616.530000  	0.010994 
3618.458816  	0.010650 
3620.387632  	0.011377 
3622.316448  	0.009918 
3624.245264  	0.008255 
3626.174080  	0.006731 
3628.102896  	0.006832 
3630.031712  	0.009358 
3631.960528  	0.007596 
3633.889344  	0.006303 
3635.818160  	0.005213 
3637.746976  	0.004151 
3639.675792  	0.003768 
3641.604608  	0.003252 
3643.533424  	0.002099 
3645.462240  	0.000155 
3647.391056  	-0.000393 
3649.319872  	0.000203 
3651.248688  	0.001287 
3653.177504  	-0.000868 
3655.106320  	-0.003326 
3657.035136  	-0.003090 
3658.963952  	-0.003944 
3660.892768  	-0.005141 
3662.821584  	-0.005716 
3664.750400  	-0.005855 
3666.679216  	-0.006970 
3668.608032  	-0.007986 
3670.536848  	-0.005901 
3672.465664  	-0.006358 
3674.394480  	-0.008866 
3676.323296  	-0.005999 
3678.252112  	-0.004744 
3680.180928  	-0.004642 
3682.109744  	-0.005584 
3684.038560  	-0.006805 
3685.967376  	-0.007879 
3687.896192  	-0.007918 
3689.825008  	-0.006272 
3691.753824  	-0.005191 
3693.682640  	-0.005151 
3695.611456  	-0.005304 
3697.540272  	-0.004777 
3699.469088  	-0.004779 
3701.397904  	-0.003341 
3703.326720  	-0.001943 
3705.255536  	-0.002287 
3707.184352  	-0.002885 
3709.113168  	-0.002971 
3711.041984  	-0.001665 
3712.970800  	0.000470 
3714.899616  	0.000447 
3716.828432  	-0.000697 
3718.757248  	-0.001072 
3720.686064  	-0.001261 
3722.614880  	-0.000313 
3724.543696  	0.000414 
3726.472512  	0.000909 
3728.401328  	-0.000158 
3730.330144  	-0.002523 
3732.258960  	-0.002551 
3734.187776  	-0.000217 
3736.116592  	0.002634 
3738.045408  	0.001500 
3739.974224  	-0.000395 
3741.903040  	-0.001765 
3743.831856  	-0.000715 
3745.760672  	0.002399 
3747.689488  	-0.000982 
3749.618304  	-0.002250 
3751.547120  	-0.000169 
3753.475936  	0.001682 
3755.404752  	0.000279 
3757.333568  	-0.000555 
3759.262384  	0.000024 
3761.191200  	0.000809 
3763.120016  	-0.000062 
3765.048832  	-0.000087 
3766.977648  	0.000007 
3768.906464  	-0.000315 
3770.835280  	0.000850 
3772.764096  	0.000606 
3774.692912  	-0.000142 
3776.621728  	-0.000959 
3778.550544  	-0.001036 
3780.479360  	0.000219 
3782.408176  	-0.000069 
3784.336992  	-0.000357 
3786.265808  	-0.000082 
3788.194624  	-0.000208 
3790.123440  	-0.000421 
3792.052256  	-0.000561 
3793.981072  	-0.001155 
3795.909888  	-0.000912 
3797.838704  	-0.000355 
3799.767520  	-0.001898 
3801.696336  	-0.000519 
3803.625152  	0.000340 
3805.553968  	-0.001316 
3807.482784  	0.000118 
3809.411600  	0.000456 
3811.340416  	-0.000324 
3813.269232  	-0.001550 
3815.198048  	-0.002155 
3817.126864  	-0.000384 
3819.055680  	-0.001543 
3820.984496  	-0.000365 
3822.913312  	0.001626 
3824.842128  	0.000008 
3826.770944  	-0.000055 
3828.699760  	-0.000384 
3830.628576  	-0.001327 
3832.557392  	-0.000925 
3834.486208  	-0.001309 
3836.415024  	-0.001701 
3838.343840  	-0.000125 
3840.272656  	0.000813 
3842.201472  	0.000197 
3844.130288  	0.000134 
3846.059104  	-0.000069 
3847.987920  	-0.000988 
3849.916736  	-0.002087 
3851.845552  	-0.002941 
3853.774368  	0.001197 
3855.703184  	0.002437 
3857.632000  	0.000703 
3859.560816  	-0.000650 
3861.489632  	-0.001041 
3863.418448  	-0.000573 
3865.347264  	0.000414 
3867.276080  	-0.000703 
3869.204896  	-0.000626 
3871.133712  	0.001769 
3873.062528  	0.000578 
3874.991344  	0.000863 
3876.920160  	-0.000321 
3878.848976  	-0.000827 
3880.777792  	0.001203 
3882.706608  	0.000984 
3884.635424  	-0.000029 
3886.564240  	0.001370 
3888.493056  	-0.000007 
3890.421872  	-0.000463 
3892.350688  	0.001055 
3894.279504  	0.000485 
3896.208320  	-0.000700 
3898.137136  	-0.000637 
3900.065952  	0.000577 
3901.994768  	0.001128 
3903.923584  	0.001932 
3905.852400  	0.002137 
3907.781216  	0.000671 
3909.710032  	-0.000271 
3911.638848  	-0.000268 
3913.567664  	-0.000387 
3915.496480  	-0.000003 
3917.425296  	0.001355 
3919.354112  	0.001319 
3921.282928  	0.000809 
3923.211744  	0.000471 
3925.140560  	0.000968 
3927.069376  	0.000398 
3928.998192  	-0.000096 
3930.927008  	0.000810 
3932.855824  	0.001842 
3934.784640  	0.000971 
3936.713456  	0.000254 
3938.642272  	0.000231 
3940.571088  	-0.000082 
3942.499904  	0.000915 
3944.428720  	0.001180 
3946.357536  	0.000500 
3948.286352  	0.000921 
3950.215168  	0.000829 
3952.143984  	0.000149 
3954.072800  	-0.000103 
3956.001616  	0.000001 
3957.930432  	0.000098 
3959.859248  	0.000279 
3961.788064  	0.000578 
3963.716880  	0.000430 
3965.645696  	-0.000022 
3967.574512  	0.000203 
3969.503328  	0.000396 
3971.432144  	0.000148 
3973.360960  	0.000114 
3975.289776  	0.000412 
3977.218592  	0.000410 
3979.147408  	0.000272 
3981.076224  	0.000158 
3983.005040  	-0.000029 
3984.933856  	-0.000107 
3986.862672  	0.000013 
3988.791488  	0.000126 
3990.720304  	0.000265 
3992.649120  	0.000244 
3994.577936  	0.000210 
3996.506752  	0.000103 
3998.435568  	0.000030 
4000.364384  	-0.000057 