##TITLE=No Description
##DATA TYPE=INFRARED SPECTRUM
##XUNITS=1/CM
##YUNITS=Abs
399.264912  	0.586410 
401.193728  	0.590749 
403.122544  	0.602329 
405.051360  	0.586176 
406.980176  	0.570076 
408.908992  	0.561613 
410.837808  	0.574498 
412.766624  	0.570999 
414.695440  	0.575330 
416.624256  	0.574639 
418.553072  	0.567183 
420.481888  	0.558229 
422.410704  	0.560019 
424.339520  	0.551383 
426.268336  	0.552853 
428.197152  	0.546865 
430.125968  	0.539110 
432.054784  	0.530361 
433.983600  	0.536522 
435.912416  	0.536026 
437.841232  	0.528146 
439.770048  	0.526036 
441.698864  	0.531864 
443.627680  	0.524562 
445.556496  	0.518532 
447.485312  	0.516535 
449.414128  	0.520588 
451.342944  	0.520162 
453.271760  	0.521310 
455.200576  	0.517596 
457.129392  	0.515743 
459.058208  	0.512377 
460.987024  	0.516875 
462.915840  	0.515245 
464.844656  	0.510998 
466.773472  	0.508613 
468.702288  	0.512977 
470.631104  	0.511830 
472.559920  	0.511081 
474.488736  	0.505557 
476.417552  	0.504785 
478.346368  	0.502608 
480.275184  	0.503954 
482.204000  	0.507823 
484.132816  	0.508735 
486.061632  	0.503371 
487.990448  	0.504205 
489.919264  	0.504135 
491.848080  	0.503354 
493.776896  	0.498349 
495.705712  	0.498980 
497.634528  	0.498506 
499.563344  	0.499085 
501.492160  	0.495959 
503.420976  	0.493791 
505.349792  	0.492235 
507.278608  	0.494281 
509.207424  	0.495109 
511.136240  	0.495758 
513.065056  	0.493622 
514.993872  	0.495600 
516.922688  	0.496908 
518.851504  	0.497363 
520.780320  	0.495562 
522.709136  	0.494080 
524.637952  	0.491808 
526.566768  	0.492128 
528.495584  	0.491428 
530.424400  	0.488949 
532.353216  	0.484801 
534.282032  	0.480915 
536.210848  	0.476958 
538.139664  	0.473780 
540.068480  	0.467466 
541.997296  	0.464694 
543.926112  	0.461504 
545.854928  	0.458997 
547.783744  	0.454920 
549.712560  	0.451717 
551.641376  	0.447278 
553.570192  	0.444037 
555.499008  	0.440829 
557.427824  	0.437380 
559.356640  	0.433378 
561.285456  	0.431061 
563.214272  	0.427820 
565.143088  	0.424550 
567.071904  	0.420914 
569.000720  	0.417195 
570.929536  	0.412732 
572.858352  	0.409940 
574.787168  	0.407515 
576.715984  	0.404317 
578.644800  	0.399725 
580.573616  	0.397078 
582.502432  	0.393612 
584.431248  	0.391004 
586.360064  	0.388471 
588.288880  	0.386265 
590.217696  	0.383418 
592.146512  	0.381813 
594.075328  	0.379728 
596.004144  	0.377392 
597.932960  	0.375265 
599.861776  	0.375349 
601.790592  	0.374015 
603.719408  	0.371880 
605.648224  	0.370137 
607.577040  	0.369859 
609.505856  	0.369053 
611.434672  	0.367490 
613.363488  	0.364823 
615.292304  	0.363213 
617.221120  	0.361844 
619.149936  	0.360477 
621.078752  	0.358309 
623.007568  	0.356316 
624.936384  	0.354183 
626.865200  	0.353048 
628.794016  	0.352069 
630.722832  	0.350655 
632.651648  	0.348929 
634.580464  	0.348296 
636.509280  	0.348993 
638.438096  	0.349049 
640.366912  	0.347432 
642.295728  	0.345005 
644.224544  	0.342726 
646.153360  	0.340641 
648.082176  	0.337987 
650.010992  	0.334333 
651.939808  	0.330292 
653.868624  	0.326663 
655.797440  	0.322700 
657.726256  	0.319410 
659.655072  	0.316035 
661.583888  	0.312660 
663.512704  	0.309132 
665.441520  	0.306245 
667.370336  	0.300693 
669.299152  	0.296083 
671.227968  	0.296016 
673.156784  	0.293637 
675.085600  	0.290693 
677.014416  	0.289001 
678.943232  	0.287563 
680.872048  	0.285940 
682.800864  	0.284590 
684.729680  	0.283196 
686.658496  	0.281095 
688.587312  	0.279280 
690.516128  	0.277265 
692.444944  	0.275879 
694.373760  	0.274357 
696.302576  	0.272995 
698.231392  	0.271028 
700.160208  	0.268488 
702.089024  	0.265224 
704.017840  	0.263646 
705.946656  	0.261716 
707.875472  	0.259005 
709.804288  	0.256530 
711.733104  	0.255004 
713.661920  	0.253750 
715.590736  	0.252812 
717.519552  	0.252151 
719.448368  	0.252277 
721.377184  	0.253084 
723.306000  	0.253569 
725.234816  	0.252993 
727.163632  	0.251865 
729.092448  	0.249881 
731.021264  	0.247644 
732.950080  	0.244548 
734.878896  	0.241234 
736.807712  	0.238711 
738.736528  	0.237224 
740.665344  	0.235707 
742.594160  	0.234149 
744.522976  	0.232713 
746.451792  	0.231521 
748.380608  	0.230450 
750.309424  	0.229609 
752.238240  	0.228791 
754.167056  	0.228527 
756.095872  	0.227544 
758.024688  	0.226165 
759.953504  	0.225000 
761.882320  	0.224756 
763.811136  	0.225154 
765.739952  	0.224834 
767.668768  	0.223486 
769.597584  	0.221855 
771.526400  	0.221219 
773.455216  	0.222664 
775.384032  	0.225023 
777.312848  	0.227949 
779.241664  	0.231067 
781.170480  	0.231864 
783.099296  	0.229219 
785.028112  	0.224464 
786.956928  	0.218886 
788.885744  	0.214201 
790.814560  	0.210594 
792.743376  	0.207943 
794.672192  	0.205985 
796.601008  	0.204944 
798.529824  	0.203045 
800.458640  	0.199876 
802.387456  	0.196850 
804.316272  	0.195290 
806.245088  	0.194172 
808.173904  	0.193516 
810.102720  	0.193341 
812.031536  	0.193209 
813.960352  	0.192754 
815.889168  	0.192480 
817.817984  	0.192289 
819.746800  	0.191702 
821.675616  	0.191071 
823.604432  	0.190507 
825.533248  	0.189383 
827.462064  	0.188003 
829.390880  	0.186699 
831.319696  	0.185268 
833.248512  	0.183703 
835.177328  	0.181783 
837.106144  	0.179396 
839.034960  	0.176627 
840.963776  	0.173926 
842.892592  	0.171190 
844.821408  	0.168211 
846.750224  	0.165558 
848.679040  	0.163143 
850.607856  	0.160867 
852.536672  	0.158873 
854.465488  	0.157018 
856.394304  	0.155265 
858.323120  	0.153474 
860.251936  	0.151344 
862.180752  	0.148843 
864.109568  	0.146719 
866.038384  	0.144956 
867.967200  	0.143012 
869.896016  	0.141270 
871.824832  	0.140061 
873.753648  	0.139533 
875.682464  	0.139647 
877.611280  	0.138986 
879.540096  	0.138410 
881.468912  	0.139509 
883.397728  	0.139942 
885.326544  	0.140085 
887.255360  	0.139884 
889.184176  	0.138816 
891.112992  	0.136887 
893.041808  	0.135372 
894.970624  	0.133695 
896.899440  	0.131199 
898.828256  	0.128155 
900.757072  	0.125322 
902.685888  	0.123008 
904.614704  	0.121854 
906.543520  	0.122117 
908.472336  	0.123426 
910.401152  	0.125702 
912.329968  	0.128535 
914.258784  	0.131494 
916.187600  	0.134211 
918.116416  	0.136224 
920.045232  	0.136994 
921.974048  	0.136687 
923.902864  	0.136018 
925.831680  	0.135026 
927.760496  	0.133986 
929.689312  	0.133222 
931.618128  	0.132999 
933.546944  	0.133089 
935.475760  	0.133188 
937.404576  	0.133270 
939.333392  	0.133923 
941.262208  	0.135057 
943.191024  	0.136940 
945.119840  	0.140165 
947.048656  	0.144394 
948.977472  	0.149501 
950.906288  	0.155503 
952.835104  	0.161992 
954.763920  	0.168282 
956.692736  	0.174038 
958.621552  	0.178750 
960.550368  	0.181745 
962.479184  	0.182747 
964.408000  	0.181433 
966.336816  	0.177829 
968.265632  	0.171755 
970.194448  	0.164289 
972.123264  	0.155689 
974.052080  	0.146653 
975.980896  	0.137752 
977.909712  	0.129336 
979.838528  	0.122337 
981.767344  	0.116704 
983.696160  	0.112488 
985.624976  	0.110197 
987.553792  	0.109825 
989.482608  	0.111181 
991.411424  	0.114306 
993.340240  	0.118849 
995.269056  	0.124318 
997.197872  	0.130182 
999.126688  	0.135752 
1001.055504  	0.141128 
1002.984320  	0.146421 
1004.913136  	0.151350 
1006.841952  	0.155420 
1008.770768  	0.158732 
1010.699584  	0.161031 
1012.628400  	0.162041 
1014.557216  	0.162326 
1016.486032  	0.162515 
1018.414848  	0.162427 
1020.343664  	0.162486 
1022.272480  	0.162297 
1024.201296  	0.161441 
1026.130112  	0.157585 
1028.058928  	0.156014 
1029.987744  	0.159299 
1031.916560  	0.160627 
1033.845376  	0.160205 
1035.774192  	0.158925 
1037.703008  	0.158793 
1039.631824  	0.162191 
1041.560640  	0.166734 
1043.489456  	0.172578 
1045.418272  	0.180955 
1047.347088  	0.191584 
1049.275904  	0.203043 
1051.204720  	0.214486 
1053.133536  	0.224627 
1055.062352  	0.232305 
1056.991168  	0.236454 
1058.919984  	0.241647 
1060.848800  	0.245537 
1062.777616  	0.244078 
1064.706432  	0.237033 
1066.635248  	0.231758 
1068.564064  	0.232301 
1070.492880  	0.229598 
1072.421696  	0.222862 
1074.350512  	0.216484 
1076.279328  	0.212035 
1078.208144  	0.209853 
1080.136960  	0.209894 
1082.065776  	0.210525 
1083.994592  	0.211064 
1085.923408  	0.211675 
1087.852224  	0.211469 
1089.781040  	0.210714 
1091.709856  	0.209255 
1093.638672  	0.205229 
1095.567488  	0.198755 
1097.496304  	0.191400 
1099.425120  	0.183077 
1101.353936  	0.174393 
1103.282752  	0.165698 
1105.211568  	0.156992 
1107.140384  	0.148475 
1109.069200  	0.140364 
1110.998016  	0.132738 
1112.926832  	0.125608 
1114.855648  	0.118583 
1116.784464  	0.111653 
1118.713280  	0.105615 
1120.642096  	0.100104 
1122.570912  	0.094556 
1124.499728  	0.089161 
1126.428544  	0.084302 
1128.357360  	0.079748 
1130.286176  	0.075521 
1132.214992  	0.071928 
1134.143808  	0.068812 
1136.072624  	0.065942 
1138.001440  	0.063313 
1139.930256  	0.060705 
1141.859072  	0.058461 
1143.787888  	0.056085 
1145.716704  	0.054043 
1147.645520  	0.052495 
1149.574336  	0.051307 
1151.503152  	0.050280 
1153.431968  	0.049891 
1155.360784  	0.049951 
1157.289600  	0.050323 
1159.218416  	0.051085 
1161.147232  	0.052441 
1163.076048  	0.053724 
1165.004864  	0.055369 
1166.933680  	0.056839 
1168.862496  	0.058661 
1170.791312  	0.060754 
1172.720128  	0.063012 
1174.648944  	0.064994 
1176.577760  	0.067022 
1178.506576  	0.069199 
1180.435392  	0.071458 
1182.364208  	0.073469 
1184.293024  	0.075771 
1186.221840  	0.078322 
1188.150656  	0.080965 
1190.079472  	0.083950 
1192.008288  	0.087658 
1193.937104  	0.091959 
1195.865920  	0.096869 
1197.794736  	0.102013 
1199.723552  	0.107773 
1201.652368  	0.113723 
1203.581184  	0.119903 
1205.510000  	0.125948 
1207.438816  	0.131900 
1209.367632  	0.137587 
1211.296448  	0.143034 
1213.225264  	0.147712 
1215.154080  	0.151855 
1217.082896  	0.155234 
1219.011712  	0.157756 
1220.940528  	0.159864 
1222.869344  	0.161490 
1224.798160  	0.162575 
1226.726976  	0.163303 
1228.655792  	0.164004 
1230.584608  	0.164410 
1232.513424  	0.164335 
1234.442240  	0.163358 
1236.371056  	0.161667 
1238.299872  	0.158922 
1240.228688  	0.153312 
1242.157504  	0.147736 
1244.086320  	0.143816 
1246.015136  	0.137904 
1247.943952  	0.130650 
1249.872768  	0.123522 
1251.801584  	0.117703 
1253.730400  	0.112068 
1255.659216  	0.106504 
1257.588032  	0.101080 
1259.516848  	0.096061 
1261.445664  	0.091528 
1263.374480  	0.087488 
1265.303296  	0.084006 
1267.232112  	0.081306 
1269.160928  	0.079357 
1271.089744  	0.078088 
1273.018560  	0.077375 
1274.947376  	0.077136 
1276.876192  	0.076947 
1278.805008  	0.076406 
1280.733824  	0.074998 
1282.662640  	0.072513 
1284.591456  	0.069287 
1286.520272  	0.066188 
1288.449088  	0.063682 
1290.377904  	0.061454 
1292.306720  	0.059788 
1294.235536  	0.057823 
1296.164352  	0.055107 
1298.093168  	0.051964 
1300.021984  	0.048897 
1301.950800  	0.045891 
1303.879616  	0.043342 
1305.808432  	0.041242 
1307.737248  	0.039632 
1309.666064  	0.038154 
1311.594880  	0.037518 
1313.523696  	0.037186 
1315.452512  	0.036894 
1317.381328  	0.037236 
1319.310144  	0.037709 
1321.238960  	0.037903 
1323.167776  	0.038413 
1325.096592  	0.038967 
1327.025408  	0.039146 
1328.954224  	0.038859 
1330.883040  	0.038306 
1332.811856  	0.037345 
1334.740672  	0.036770 
1336.669488  	0.036761 
1338.598304  	0.037207 
1340.527120  	0.036305 
1342.455936  	0.034380 
1344.384752  	0.033759 
1346.313568  	0.034188 
1348.242384  	0.035155 
1350.171200  	0.036536 
1352.100016  	0.038028 
1354.028832  	0.039752 
1355.957648  	0.041501 
1357.886464  	0.043005 
1359.815280  	0.044728 
1361.744096  	0.047061 
1363.672912  	0.047758 
1365.601728  	0.046885 
1367.530544  	0.046903 
1369.459360  	0.046541 
1371.388176  	0.045296 
1373.316992  	0.044092 
1375.245808  	0.041359 
1377.174624  	0.038333 
1379.103440  	0.035731 
1381.032256  	0.033411 
1382.961072  	0.031859 
1384.889888  	0.031736 
1386.818704  	0.032585 
1388.747520  	0.031737 
1390.676336  	0.029117 
1392.605152  	0.025192 
1394.533968  	0.024402 
1396.462784  	0.028591 
1398.391600  	0.029974 
1400.320416  	0.029003 
1402.249232  	0.028037 
1404.178048  	0.028679 
1406.106864  	0.029280 
1408.035680  	0.030530 
1409.964496  	0.033015 
1411.893312  	0.036099 
1413.822128  	0.038929 
1415.750944  	0.042521 
1417.679760  	0.045741 
1419.608576  	0.046392 
1421.537392  	0.045453 
1423.466208  	0.045649 
1425.395024  	0.044418 
1427.323840  	0.042887 
1429.252656  	0.041904 
1431.181472  	0.041041 
1433.110288  	0.040526 
1435.039104  	0.041163 
1436.967920  	0.041639 
1438.896736  	0.041139 
1440.825552  	0.041155 
1442.754368  	0.041578 
1444.683184  	0.041777 
1446.612000  	0.042164 
1448.540816  	0.041813 
1450.469632  	0.041470 
1452.398448  	0.041967 
1454.327264  	0.043221 
1456.256080  	0.045484 
1458.184896  	0.045775 
1460.113712  	0.044593 
1462.042528  	0.044475 
1463.971344  	0.045247 
1465.900160  	0.046829 
1467.828976  	0.048494 
1469.757792  	0.051086 
1471.686608  	0.055159 
1473.615424  	0.059873 
1475.544240  	0.062642 
1477.473056  	0.064282 
1479.401872  	0.065031 
1481.330688  	0.066026 
1483.259504  	0.066102 
1485.188320  	0.066156 
1487.117136  	0.065788 
1489.045952  	0.065209 
1490.974768  	0.061568 
1492.903584  	0.057564 
1494.832400  	0.055012 
1496.761216  	0.051968 
1498.690032  	0.048496 
1500.618848  	0.046148 
1502.547664  	0.043982 
1504.476480  	0.042240 
1506.405296  	0.043065 
1508.334112  	0.043485 
1510.262928  	0.040945 
1512.191744  	0.038814 
1514.120560  	0.037777 
1516.049376  	0.038570 
1517.978192  	0.038501 
1519.907008  	0.039166 
1521.835824  	0.041254 
1523.764640  	0.043002 
1525.693456  	0.045716 
1527.622272  	0.047491 
1529.551088  	0.047863 
1531.479904  	0.048536 
1533.408720  	0.048473 
1535.337536  	0.046784 
1537.266352  	0.045128 
1539.195168  	0.042520 
1541.123984  	0.040295 
1543.052800  	0.040570 
1544.981616  	0.039663 
1546.910432  	0.037340 
1548.839248  	0.037110 
1550.768064  	0.037409 
1552.696880  	0.036739 
1554.625696  	0.037566 
1556.554512  	0.037783 
1558.483328  	0.039094 
1560.412144  	0.041639 
1562.340960  	0.043484 
1564.269776  	0.045511 
1566.198592  	0.048781 
1568.127408  	0.052012 
1570.056224  	0.056462 
1571.985040  	0.059955 
1573.913856  	0.062576 
1575.842672  	0.064097 
1577.771488  	0.065577 
1579.700304  	0.065855 
1581.629120  	0.065927 
1583.557936  	0.066086 
1585.486752  	0.067397 
1587.415568  	0.069817 
1589.344384  	0.073740 
1591.273200  	0.078013 
1593.202016  	0.083089 
1595.130832  	0.088033 
1597.059648  	0.092805 
1598.988464  	0.096598 
1600.917280  	0.099765 
1602.846096  	0.101423 
1604.774912  	0.102379 
1606.703728  	0.102341 
1608.632544  	0.101827 
1610.561360  	0.100739 
1612.490176  	0.100343 
1614.418992  	0.100413 
1616.347808  	0.101043 
1618.276624  	0.102819 
1620.205440  	0.106914 
1622.134256  	0.111030 
1624.063072  	0.116617 
1625.991888  	0.122346 
1627.920704  	0.128990 
1629.849520  	0.135910 
1631.778336  	0.142927 
1633.707152  	0.148921 
1635.635968  	0.155274 
1637.564784  	0.160899 
1639.493600  	0.165840 
1641.422416  	0.169466 
1643.351232  	0.172924 
1645.280048  	0.174976 
1647.208864  	0.175422 
1649.137680  	0.175282 
1651.066496  	0.176542 
1652.995312  	0.173556 
1654.924128  	0.170808 
1656.852944  	0.170716 
1658.781760  	0.169818 
1660.710576  	0.168594 
1662.639392  	0.166719 
1664.568208  	0.164581 
1666.497024  	0.164347 
1668.425840  	0.163297 
1670.354656  	0.161064 
1672.283472  	0.160093 
1674.212288  	0.160095 
1676.141104  	0.158731 
1678.069920  	0.159607 
1679.998736  	0.161057 
1681.927552  	0.162272 
1683.856368  	0.161559 
1685.785184  	0.160051 
1687.714000  	0.160637 
1689.642816  	0.159567 
1691.571632  	0.157246 
1693.500448  	0.156112 
1695.429264  	0.153354 
1697.358080  	0.149756 
1699.286896  	0.147128 
1701.215712  	0.140549 
1703.144528  	0.137491 
1705.073344  	0.133245 
1707.002160  	0.127338 
1708.930976  	0.122544 
1710.859792  	0.117363 
1712.788608  	0.112449 
1714.717424  	0.107434 
1716.646240  	0.100914 
1718.575056  	0.092281 
1720.503872  	0.085102 
1722.432688  	0.079739 
1724.361504  	0.073270 
1726.290320  	0.067199 
1728.219136  	0.061996 
1730.147952  	0.057671 
1732.076768  	0.053248 
1734.005584  	0.048155 
1735.934400  	0.041859 
1737.863216  	0.038662 
1739.792032  	0.034254 
1741.720848  	0.031176 
1743.649664  	0.028780 
1745.578480  	0.026087 
1747.507296  	0.023777 
1749.436112  	0.022554 
1751.364928  	0.020806 
1753.293744  	0.018580 
1755.222560  	0.016897 
1757.151376  	0.016444 
1759.080192  	0.015185 
1761.009008  	0.014648 
1762.937824  	0.013713 
1764.866640  	0.012996 
1766.795456  	0.012926 
1768.724272  	0.013218 
1770.653088  	0.011942 
1772.581904  	0.011577 
1774.510720  	0.011516 
1776.439536  	0.011447 
1778.368352  	0.011026 
1780.297168  	0.011273 
1782.225984  	0.010671 
1784.154800  	0.010559 
1786.083616  	0.010353 
1788.012432  	0.010051 
1789.941248  	0.010222 
1791.870064  	0.010899 
1793.798880  	0.010329 
1795.727696  	0.010193 
1797.656512  	0.009608 
1799.585328  	0.009587 
1801.514144  	0.009814 
1803.442960  	0.009176 
1805.371776  	0.008345 
1807.300592  	0.008492 
1809.229408  	0.008336 
1811.158224  	0.008543 
1813.087040  	0.008075 
1815.015856  	0.007653 
1816.944672  	0.007763 
1818.873488  	0.008027 
1820.802304  	0.007924 
1822.731120  	0.008158 
1824.659936  	0.008397 
1826.588752  	0.008377 
1828.517568  	0.008027 
1830.446384  	0.008654 
1832.375200  	0.008144 
1834.304016  	0.007750 
1836.232832  	0.007599 
1838.161648  	0.008060 
1840.090464  	0.007836 
1842.019280  	0.007855 
1843.948096  	0.007932 
1845.876912  	0.008297 
1847.805728  	0.008138 
1849.734544  	0.007959 
1851.663360  	0.007446 
1853.592176  	0.007475 
1855.520992  	0.007296 
1857.449808  	0.007802 
1859.378624  	0.007869 
1861.307440  	0.007862 
1863.236256  	0.007434 
1865.165072  	0.007544 
1867.093888  	0.008044 
1869.022704  	0.008863 
1870.951520  	0.008045 
1872.880336  	0.007427 
1874.809152  	0.006917 
1876.737968  	0.007071 
1878.666784  	0.006914 
1880.595600  	0.007105 
1882.524416  	0.007092 
1884.453232  	0.007013 
1886.382048  	0.006689 
1888.310864  	0.007345 
1890.239680  	0.008007 
1892.168496  	0.007892 
1894.097312  	0.007261 
1896.026128  	0.007206 
1897.954944  	0.006866 
1899.883760  	0.006928 
1901.812576  	0.006803 
1903.741392  	0.006765 
1905.670208  	0.006325 
1907.599024  	0.006710 
1909.527840  	0.006902 
1911.456656  	0.006847 
1913.385472  	0.006500 
1915.314288  	0.007064 
1917.243104  	0.007421 
1919.171920  	0.007432 
1921.100736  	0.007229 
1923.029552  	0.007901 
1924.958368  	0.006893 
1926.887184  	0.006792 
1928.816000  	0.006451 
1930.744816  	0.006250 
1932.673632  	0.005728 
1934.602448  	0.006272 
1936.531264  	0.006494 
1938.460080  	0.006661 
1940.388896  	0.006603 
1942.317712  	0.007066 
1944.246528  	0.006534 
1946.175344  	0.006882 
1948.104160  	0.006068 
1950.032976  	0.006230 
1951.961792  	0.006928 
1953.890608  	0.007254 
1955.819424  	0.006219 
1957.748240  	0.006481 
1959.677056  	0.006556 
1961.605872  	0.006138 
1963.534688  	0.005867 
1965.463504  	0.007305 
1967.392320  	0.006772 
1969.321136  	0.006242 
1971.249952  	0.006670 
1973.178768  	0.008287 
1975.107584  	0.007433 
1977.036400  	0.007271 
1978.965216  	0.008045 
1980.894032  	0.008497 
1982.822848  	0.006750 
1984.751664  	0.007005 
1986.680480  	0.007135 
1988.609296  	0.007341 
1990.538112  	0.007502 
1992.466928  	0.007992 
1994.395744  	0.007329 
1996.324560  	0.006745 
1998.253376  	0.005970 
2000.182192  	0.006212 
2002.111008  	0.005818 
2004.039824  	0.006362 
2005.968640  	0.006325 
2007.897456  	0.007781 
2009.826272  	0.007129 
2011.755088  	0.005851 
2013.683904  	0.006511 
2015.612720  	0.008169 
2017.541536  	0.007474 
2019.470352  	0.006090 
2021.399168  	0.005666 
2023.327984  	0.007976 
2025.256800  	0.007603 
2027.185616  	0.006256 
2029.114432  	0.006033 
2031.043248  	0.008187 
2032.972064  	0.008579 
2034.900880  	0.008267 
2036.829696  	0.007604 
2038.758512  	0.007527 
2040.687328  	0.006740 
2042.616144  	0.006240 
2044.544960  	0.005870 
2046.473776  	0.006851 
2048.402592  	0.006846 
2050.331408  	0.007838 
2052.260224  	0.007617 
2054.189040  	0.007211 
2056.117856  	0.006289 
2058.046672  	0.006300 
2059.975488  	0.006163 
2061.904304  	0.006418 
2063.833120  	0.007292 
2065.761936  	0.007586 
2067.690752  	0.006743 
2069.619568  	0.006517 
2071.548384  	0.005362 
2073.477200  	0.005808 
2075.406016  	0.006864 
2077.334832  	0.007215 
2079.263648  	0.006508 
2081.192464  	0.006501 
2083.121280  	0.007153 
2085.050096  	0.007282 
2086.978912  	0.007019 
2088.907728  	0.007071 
2090.836544  	0.006345 
2092.765360  	0.005775 
2094.694176  	0.005753 
2096.622992  	0.005865 
2098.551808  	0.005467 
2100.480624  	0.005817 
2102.409440  	0.005707 
2104.338256  	0.006373 
2106.267072  	0.006649 
2108.195888  	0.006556 
2110.124704  	0.007012 
2112.053520  	0.007440 
2113.982336  	0.007011 
2115.911152  	0.006580 
2117.839968  	0.005931 
2119.768784  	0.005629 
2121.697600  	0.005643 
2123.626416  	0.005627 
2125.555232  	0.005763 
2127.484048  	0.006095 
2129.412864  	0.005723 
2131.341680  	0.005021 
2133.270496  	0.005224 
2135.199312  	0.005716 
2137.128128  	0.005523 
2139.056944  	0.005815 
2140.985760  	0.005477 
2142.914576  	0.006443 
2144.843392  	0.006178 
2146.772208  	0.006061 
2148.701024  	0.006525 
2150.629840  	0.007000 
2152.558656  	0.005551 
2154.487472  	0.003857 
2156.416288  	0.003241 
2158.345104  	0.005774 
2160.273920  	0.008868 
2162.202736  	0.009608 
2164.131552  	0.008540 
2166.060368  	0.009535 
2167.989184  	0.008291 
2169.918000  	0.006761 
2171.846816  	0.006001 
2173.775632  	0.006415 
2175.704448  	0.007314 
2177.633264  	0.008015 
2179.562080  	0.007762 
2181.490896  	0.007557 
2183.419712  	0.007518 
2185.348528  	0.008050 
2187.277344  	0.008073 
2189.206160  	0.007760 
2191.134976  	0.007794 
2193.063792  	0.009082 
2194.992608  	0.009069 
2196.921424  	0.008040 
2198.850240  	0.007675 
2200.779056  	0.008149 
2202.707872  	0.007815 
2204.636688  	0.008152 
2206.565504  	0.008785 
2208.494320  	0.008944 
2210.423136  	0.006894 
2212.351952  	0.006425 
2214.280768  	0.006844 
2216.209584  	0.007148 
2218.138400  	0.007454 
2220.067216  	0.007556 
2221.996032  	0.007351 
2223.924848  	0.007061 
2225.853664  	0.007314 
2227.782480  	0.008150 
2229.711296  	0.008189 
2231.640112  	0.008065 
2233.568928  	0.007608 
2235.497744  	0.007568 
2237.426560  	0.007277 
2239.355376  	0.007490 
2241.284192  	0.007220 
2243.213008  	0.007041 
2245.141824  	0.006926 
2247.070640  	0.006441 
2248.999456  	0.006163 
2250.928272  	0.006690 
2252.857088  	0.006637 
2254.785904  	0.006602 
2256.714720  	0.007272 
2258.643536  	0.007662 
2260.572352  	0.007254 
2262.501168  	0.007318 
2264.429984  	0.007277 
2266.358800  	0.007586 
2268.287616  	0.007781 
2270.216432  	0.007438 
2272.145248  	0.007033 
2274.074064  	0.007136 
2276.002880  	0.007170 
2277.931696  	0.007868 
2279.860512  	0.008272 
2281.789328  	0.008449 
2283.718144  	0.008332 
2285.646960  	0.008597 
2287.575776  	0.008737 
2289.504592  	0.008399 
2291.433408  	0.007883 
2293.362224  	0.007871 
2295.291040  	0.008075 
2297.219856  	0.008522 
2299.148672  	0.008627 
2301.077488  	0.008601 
2303.006304  	0.008635 
2304.935120  	0.008606 
2306.863936  	0.008373 
2308.792752  	0.008329 
2310.721568  	0.008308 
2312.650384  	0.007752 
2314.579200  	0.006827 
2316.508016  	0.006545 
2318.436832  	0.005836 
2320.365648  	0.005108 
2322.294464  	0.004544 
2324.223280  	0.003471 
2326.152096  	0.001414 
2328.080912  	-0.000104 
2330.009728  	-0.000968 
2331.938544  	-0.001844 
2333.867360  	-0.003229 
2335.796176  	-0.004130 
2337.724992  	-0.004891 
2339.653808  	-0.005152 
2341.582624  	-0.005021 
2343.511440  	-0.003697 
2345.440256  	-0.001195 
2347.369072  	0.001943 
2349.297888  	0.002707 
2351.226704  	0.000131 
2353.155520  	-0.003470 
2355.084336  	-0.006480 
2357.013152  	-0.008684 
2358.941968  	-0.009454 
2360.870784  	-0.009941 
2362.799600  	-0.009417 
2364.728416  	-0.008319 
2366.657232  	-0.006061 
2368.586048  	-0.003922 
2370.514864  	-0.001567 
2372.443680  	0.000805 
2374.372496  	0.003440 
2376.301312  	0.005657 
2378.230128  	0.007114 
2380.158944  	0.007735 
2382.087760  	0.008074 
2384.016576  	0.008248 
2385.945392  	0.008297 
2387.874208  	0.007912 
2389.803024  	0.007529 
2391.731840  	0.007353 
2393.660656  	0.007451 
2395.589472  	0.007658 
2397.518288  	0.007856 
2399.447104  	0.007686 
2401.375920  	0.007509 
2403.304736  	0.007597 
2405.233552  	0.007834 
2407.162368  	0.007942 
2409.091184  	0.007904 
2411.020000  	0.007851 
2412.948816  	0.008016 
2414.877632  	0.007988 
2416.806448  	0.008094 
2418.735264  	0.008229 
2420.664080  	0.008093 
2422.592896  	0.007851 
2424.521712  	0.007921 
2426.450528  	0.008043 
2428.379344  	0.008084 
2430.308160  	0.008238 
2432.236976  	0.008422 
2434.165792  	0.008637 
2436.094608  	0.008977 
2438.023424  	0.008971 
2439.952240  	0.009059 
2441.881056  	0.009060 
2443.809872  	0.008857 
2445.738688  	0.008800 
2447.667504  	0.009027 
2449.596320  	0.009031 
2451.525136  	0.009064 
2453.453952  	0.009258 
2455.382768  	0.009514 
2457.311584  	0.009406 
2459.240400  	0.009144 
2461.169216  	0.009140 
2463.098032  	0.009206 
2465.026848  	0.009175 
2466.955664  	0.009141 
2468.884480  	0.009085 
2470.813296  	0.009178 
2472.742112  	0.009064 
2474.670928  	0.008993 
2476.599744  	0.009114 
2478.528560  	0.009209 
2480.457376  	0.009299 
2482.386192  	0.009405 
2484.315008  	0.009350 
2486.243824  	0.009382 
2488.172640  	0.009433 
2490.101456  	0.009603 
2492.030272  	0.009970 
2493.959088  	0.009929 
2495.887904  	0.009620 
2497.816720  	0.009888 
2499.745536  	0.010052 
2501.674352  	0.009947 
2503.603168  	0.009924 
2505.531984  	0.010195 
2507.460800  	0.010372 
2509.389616  	0.010190 
2511.318432  	0.009845 
2513.247248  	0.010014 
2515.176064  	0.010221 
2517.104880  	0.010440 
2519.033696  	0.010539 
2520.962512  	0.010491 
2522.891328  	0.010670 
2524.820144  	0.010692 
2526.748960  	0.010574 
2528.677776  	0.010801 
2530.606592  	0.010792 
2532.535408  	0.010773 
2534.464224  	0.011087 
2536.393040  	0.011265 
2538.321856  	0.010958 
2540.250672  	0.010973 
2542.179488  	0.011147 
2544.108304  	0.011382 
2546.037120  	0.011252 
2547.965936  	0.011494 
2549.894752  	0.011699 
2551.823568  	0.011736 
2553.752384  	0.011741 
2555.681200  	0.011876 
2557.610016  	0.011866 
2559.538832  	0.011798 
2561.467648  	0.012001 
2563.396464  	0.012361 
2565.325280  	0.012458 
2567.254096  	0.012414 
2569.182912  	0.012303 
2571.111728  	0.012177 
2573.040544  	0.011978 
2574.969360  	0.012000 
2576.898176  	0.012271 
2578.826992  	0.012557 
2580.755808  	0.012555 
2582.684624  	0.012414 
2584.613440  	0.012234 
2586.542256  	0.012451 
2588.471072  	0.012815 
2590.399888  	0.012930 
2592.328704  	0.012897 
2594.257520  	0.013167 
2596.186336  	0.013549 
2598.115152  	0.013465 
2600.043968  	0.013207 
2601.972784  	0.013127 
2603.901600  	0.013282 
2605.830416  	0.013442 
2607.759232  	0.013260 
2609.688048  	0.013494 
2611.616864  	0.013754 
2613.545680  	0.013898 
2615.474496  	0.013974 
2617.403312  	0.013967 
2619.332128  	0.014075 
2621.260944  	0.014243 
2623.189760  	0.014266 
2625.118576  	0.014350 
2627.047392  	0.014411 
2628.976208  	0.014665 
2630.905024  	0.014697 
2632.833840  	0.014748 
2634.762656  	0.014847 
2636.691472  	0.014983 
2638.620288  	0.015079 
2640.549104  	0.015131 
2642.477920  	0.015124 
2644.406736  	0.015204 
2646.335552  	0.015401 
2648.264368  	0.015610 
2650.193184  	0.015732 
2652.122000  	0.015985 
2654.050816  	0.016093 
2655.979632  	0.015921 
2657.908448  	0.015984 
2659.837264  	0.016176 
2661.766080  	0.016187 
2663.694896  	0.016135 
2665.623712  	0.016034 
2667.552528  	0.016010 
2669.481344  	0.016164 
2671.410160  	0.016395 
2673.338976  	0.016483 
2675.267792  	0.016521 
2677.196608  	0.016584 
2679.125424  	0.016759 
2681.054240  	0.016846 
2682.983056  	0.016905 
2684.911872  	0.017084 
2686.840688  	0.017256 
2688.769504  	0.017275 
2690.698320  	0.017262 
2692.627136  	0.017371 
2694.555952  	0.017530 
2696.484768  	0.017526 
2698.413584  	0.017604 
2700.342400  	0.017693 
2702.271216  	0.017831 
2704.200032  	0.017970 
2706.128848  	0.018127 
2708.057664  	0.018227 
2709.986480  	0.018173 
2711.915296  	0.018130 
2713.844112  	0.018282 
2715.772928  	0.018450 
2717.701744  	0.018510 
2719.630560  	0.018540 
2721.559376  	0.018652 
2723.488192  	0.018752 
2725.417008  	0.018911 
2727.345824  	0.018996 
2729.274640  	0.018973 
2731.203456  	0.018992 
2733.132272  	0.019078 
2735.061088  	0.019211 
2736.989904  	0.019344 
2738.918720  	0.019394 
2740.847536  	0.019324 
2742.776352  	0.019344 
2744.705168  	0.019491 
2746.633984  	0.019508 
2748.562800  	0.019644 
2750.491616  	0.019853 
2752.420432  	0.019824 
2754.349248  	0.019778 
2756.278064  	0.019808 
2758.206880  	0.019818 
2760.135696  	0.020001 
2762.064512  	0.019929 
2763.993328  	0.019902 
2765.922144  	0.020000 
2767.850960  	0.020017 
2769.779776  	0.019971 
2771.708592  	0.019944 
2773.637408  	0.019873 
2775.566224  	0.019982 
2777.495040  	0.019996 
2779.423856  	0.020025 
2781.352672  	0.020187 
2783.281488  	0.020255 
2785.210304  	0.020234 
2787.139120  	0.020356 
2789.067936  	0.020438 
2790.996752  	0.020420 
2792.925568  	0.020476 
2794.854384  	0.020486 
2796.783200  	0.020448 
2798.712016  	0.020361 
2800.640832  	0.020419 
2802.569648  	0.020587 
2804.498464  	0.020637 
2806.427280  	0.020653 
2808.356096  	0.020672 
2810.284912  	0.020780 
2812.213728  	0.020803 
2814.142544  	0.020812 
2816.071360  	0.020847 
2818.000176  	0.020642 
2819.928992  	0.020418 
2821.857808  	0.020361 
2823.786624  	0.020314 
2825.715440  	0.020258 
2827.644256  	0.020030 
2829.573072  	0.019863 
2831.501888  	0.019565 
2833.430704  	0.019215 
2835.359520  	0.018961 
2837.288336  	0.018587 
2839.217152  	0.018185 
2841.145968  	0.017868 
2843.074784  	0.017564 
2845.003600  	0.017362 
2846.932416  	0.017204 
2848.861232  	0.017031 
2850.790048  	0.016600 
2852.718864  	0.015842 
2854.647680  	0.014922 
2856.576496  	0.013915 
2858.505312  	0.012936 
2860.434128  	0.012017 
2862.362944  	0.010880 
2864.291760  	0.009625 
2866.220576  	0.008613 
2868.149392  	0.008146 
2870.078208  	0.007947 
2872.007024  	0.007802 
2873.935840  	0.007706 
2875.864656  	0.007586 
2877.793472  	0.007244 
2879.722288  	0.006694 
2881.651104  	0.005859 
2883.579920  	0.005110 
2885.508736  	0.004996 
2887.437552  	0.005279 
2889.366368  	0.005267 
2891.295184  	0.004772 
2893.224000  	0.004396 
2895.152816  	0.004464 
2897.081632  	0.003952 
2899.010448  	0.001802 
2900.939264  	0.000106 
2902.868080  	0.001738 
2904.796896  	0.003506 
2906.725712  	0.004173 
2908.654528  	0.004561 
2910.583344  	0.004960 
2912.512160  	0.006299 
2914.440976  	0.008172 
2916.369792  	0.009353 
2918.298608  	0.010005 
2920.227424  	0.010446 
2922.156240  	0.011022 
2924.085056  	0.011753 
2926.013872  	0.012522 
2927.942688  	0.013276 
2929.871504  	0.014005 
2931.800320  	0.014778 
2933.729136  	0.015371 
2935.657952  	0.015575 
2937.586768  	0.015889 
2939.515584  	0.016035 
2941.444400  	0.015801 
2943.373216  	0.015726 
2945.302032  	0.015813 
2947.230848  	0.015761 
2949.159664  	0.015351 
2951.088480  	0.014547 
2953.017296  	0.013790 
2954.946112  	0.012860 
2956.874928  	0.011623 
2958.803744  	0.010550 
2960.732560  	0.009808 
2962.661376  	0.008986 
2964.590192  	0.007623 
2966.519008  	0.005935 
2968.447824  	0.004404 
2970.376640  	0.003375 
2972.305456  	0.002704 
2974.234272  	0.002852 
2976.163088  	0.003109 
2978.091904  	0.003215 
2980.020720  	0.003190 
2981.949536  	0.003194 
2983.878352  	0.002630 
2985.807168  	0.001348 
2987.735984  	0.000407 
2989.664800  	0.001190 
2991.593616  	0.005203 
2993.522432  	0.007472 
2995.451248  	0.007981 
2997.380064  	0.009076 
2999.308880  	0.010503 
3001.237696  	0.012201 
3003.166512  	0.013996 
3005.095328  	0.015698 
3007.024144  	0.017464 
3008.952960  	0.019289 
3010.881776  	0.021185 
3012.810592  	0.022827 
3014.739408  	0.024191 
3016.668224  	0.025663 
3018.597040  	0.027039 
3020.525856  	0.028205 
3022.454672  	0.029425 
3024.383488  	0.030661 
3026.312304  	0.031739 
3028.241120  	0.032819 
3030.169936  	0.033755 
3032.098752  	0.034677 
3034.027568  	0.035384 
3035.956384  	0.036040 
3037.885200  	0.036735 
3039.814016  	0.037310 
3041.742832  	0.037963 
3043.671648  	0.038557 
3045.600464  	0.038918 
3047.529280  	0.039324 
3049.458096  	0.039783 
3051.386912  	0.040112 
3053.315728  	0.040497 
3055.244544  	0.040948 
3057.173360  	0.041511 
3059.102176  	0.041924 
3061.030992  	0.042183 
3062.959808  	0.042456 
3064.888624  	0.042922 
3066.817440  	0.043466 
3068.746256  	0.043844 
3070.675072  	0.044018 
3072.603888  	0.044414 
3074.532704  	0.044894 
3076.461520  	0.045378 
3078.390336  	0.045727 
3080.319152  	0.046068 
3082.247968  	0.046515 
3084.176784  	0.046956 
3086.105600  	0.047216 
3088.034416  	0.047499 
3089.963232  	0.047955 
3091.892048  	0.048413 
3093.820864  	0.048700 
3095.749680  	0.049005 
3097.678496  	0.049242 
3099.607312  	0.049707 
3101.536128  	0.050048 
3103.464944  	0.050403 
3105.393760  	0.050826 
3107.322576  	0.051172 
3109.251392  	0.051515 
3111.180208  	0.051796 
3113.109024  	0.051990 
3115.037840  	0.052260 
3116.966656  	0.052666 
3118.895472  	0.053061 
3120.824288  	0.053268 
3122.753104  	0.053661 
3124.681920  	0.053935 
3126.610736  	0.054090 
3128.539552  	0.054353 
3130.468368  	0.054476 
3132.397184  	0.054566 
3134.326000  	0.054753 
3136.254816  	0.055004 
3138.183632  	0.055230 
3140.112448  	0.055396 
3142.041264  	0.055679 
3143.970080  	0.055899 
3145.898896  	0.056063 
3147.827712  	0.056309 
3149.756528  	0.056726 
3151.685344  	0.057272 
3153.614160  	0.057612 
3155.542976  	0.057696 
3157.471792  	0.057908 
3159.400608  	0.058428 
3161.329424  	0.058811 
3163.258240  	0.059099 
3165.187056  	0.059373 
3167.115872  	0.059471 
3169.044688  	0.059587 
3170.973504  	0.059684 
3172.902320  	0.059789 
3174.831136  	0.060071 
3176.759952  	0.060420 
3178.688768  	0.060628 
3180.617584  	0.060627 
3182.546400  	0.060612 
3184.475216  	0.060947 
3186.404032  	0.061215 
3188.332848  	0.061285 
3190.261664  	0.061392 
3192.190480  	0.061435 
3194.119296  	0.061226 
3196.048112  	0.061176 
3197.976928  	0.061381 
3199.905744  	0.061388 
3201.834560  	0.061369 
3203.763376  	0.061530 
3205.692192  	0.061545 
3207.621008  	0.061302 
3209.549824  	0.060897 
3211.478640  	0.060611 
3213.407456  	0.060599 
3215.336272  	0.060857 
3217.265088  	0.060815 
3219.193904  	0.060506 
3221.122720  	0.060163 
3223.051536  	0.059922 
3224.980352  	0.059649 
3226.909168  	0.059319 
3228.837984  	0.059125 
3230.766800  	0.059136 
3232.695616  	0.059213 
3234.624432  	0.059091 
3236.553248  	0.059075 
3238.482064  	0.059084 
3240.410880  	0.058921 
3242.339696  	0.058631 
3244.268512  	0.058593 
3246.197328  	0.058689 
3248.126144  	0.058795 
3250.054960  	0.058944 
3251.983776  	0.058937 
3253.912592  	0.058943 
3255.841408  	0.058966 
3257.770224  	0.058963 
3259.699040  	0.059036 
3261.627856  	0.059172 
3263.556672  	0.059216 
3265.485488  	0.059227 
3267.414304  	0.059479 
3269.343120  	0.059709 
3271.271936  	0.059984 
3273.200752  	0.060300 
3275.129568  	0.060318 
3277.058384  	0.060306 
3278.987200  	0.060534 
3280.916016  	0.060676 
3282.844832  	0.060779 
3284.773648  	0.060804 
3286.702464  	0.060866 
3288.631280  	0.061228 
3290.560096  	0.061571 
3292.488912  	0.061699 
3294.417728  	0.061575 
3296.346544  	0.061717 
3298.275360  	0.062050 
3300.204176  	0.062367 
3302.132992  	0.062498 
3304.061808  	0.062737 
3305.990624  	0.063069 
3307.919440  	0.063371 
3309.848256  	0.063496 
3311.777072  	0.063467 
3313.705888  	0.063764 
3315.634704  	0.064153 
3317.563520  	0.064351 
3319.492336  	0.064430 
3321.421152  	0.064541 
3323.349968  	0.064721 
3325.278784  	0.064983 
3327.207600  	0.065170 
3329.136416  	0.065117 
3331.065232  	0.065038 
3332.994048  	0.065188 
3334.922864  	0.065280 
3336.851680  	0.065215 
3338.780496  	0.065246 
3340.709312  	0.065186 
3342.638128  	0.065087 
3344.566944  	0.064885 
3346.495760  	0.064711 
3348.424576  	0.064418 
3350.353392  	0.064225 
3352.282208  	0.064063 
3354.211024  	0.063976 
3356.139840  	0.063931 
3358.068656  	0.063563 
3359.997472  	0.063234 
3361.926288  	0.062889 
3363.855104  	0.062483 
3365.783920  	0.062268 
3367.712736  	0.062093 
3369.641552  	0.061651 
3371.570368  	0.061146 
3373.499184  	0.060875 
3375.428000  	0.060603 
3377.356816  	0.060293 
3379.285632  	0.059967 
3381.214448  	0.059809 
3383.143264  	0.059648 
3385.072080  	0.059532 
3387.000896  	0.059060 
3388.929712  	0.058480 
3390.858528  	0.058256 
3392.787344  	0.058158 
3394.716160  	0.057648 
3396.644976  	0.057265 
3398.573792  	0.056903 
3400.502608  	0.056382 
3402.431424  	0.056065 
3404.360240  	0.055738 
3406.289056  	0.055457 
3408.217872  	0.055101 
3410.146688  	0.054707 
3412.075504  	0.054626 
3414.004320  	0.054490 
3415.933136  	0.054014 
3417.861952  	0.053466 
3419.790768  	0.053344 
3421.719584  	0.052997 
3423.648400  	0.052365 
3425.577216  	0.052090 
3427.506032  	0.051973 
3429.434848  	0.051266 
3431.363664  	0.050849 
3433.292480  	0.050681 
3435.221296  	0.050485 
3437.150112  	0.050187 
3439.078928  	0.049857 
3441.007744  	0.049484 
3442.936560  	0.049264 
3444.865376  	0.048853 
3446.794192  	0.048223 
3448.723008  	0.047715 
3450.651824  	0.047304 
3452.580640  	0.046823 
3454.509456  	0.046245 
3456.438272  	0.045892 
3458.367088  	0.045752 
3460.295904  	0.045511 
3462.224720  	0.044882 
3464.153536  	0.044249 
3466.082352  	0.043949 
3468.011168  	0.043511 
3469.939984  	0.042791 
3471.868800  	0.042083 
3473.797616  	0.041657 
3475.726432  	0.041299 
3477.655248  	0.040775 
3479.584064  	0.040333 
3481.512880  	0.040143 
3483.441696  	0.039730 
3485.370512  	0.038998 
3487.299328  	0.038525 
3489.228144  	0.037951 
3491.156960  	0.037210 
3493.085776  	0.036690 
3495.014592  	0.036274 
3496.943408  	0.035933 
3498.872224  	0.035536 
3500.801040  	0.035552 
3502.729856  	0.035593 
3504.658672  	0.034808 
3506.587488  	0.033609 
3508.516304  	0.033466 
3510.445120  	0.033426 
3512.373936  	0.032715 
3514.302752  	0.032116 
3516.231568  	0.031713 
3518.160384  	0.031413 
3520.089200  	0.031301 
3522.018016  	0.031337 
3523.946832  	0.031461 
3525.875648  	0.031136 
3527.804464  	0.030571 
3529.733280  	0.029822 
3531.662096  	0.029191 
3533.590912  	0.028649 
3535.519728  	0.028593 
3537.448544  	0.028362 
3539.377360  	0.027647 
3541.306176  	0.027115 
3543.234992  	0.027284 
3545.163808  	0.028185 
3547.092624  	0.027824 
3549.021440  	0.026081 
3550.950256  	0.025305 
3552.879072  	0.025546 
3554.807888  	0.025190 
3556.736704  	0.024434 
3558.665520  	0.024192 
3560.594336  	0.024232 
3562.523152  	0.023733 
3564.451968  	0.024058 
3566.380784  	0.025348 
3568.309600  	0.024913 
3570.238416  	0.022767 
3572.167232  	0.021263 
3574.096048  	0.020703 
3576.024864  	0.020431 
3577.953680  	0.020092 
3579.882496  	0.019873 
3581.811312  	0.019485 
3583.740128  	0.018940 
3585.668944  	0.019222 
3587.597760  	0.020408 
3589.526576  	0.019066 
3591.455392  	0.016967 
3593.384208  	0.016746 
3595.313024  	0.016762 
3597.241840  	0.016022 
3599.170656  	0.014976 
3601.099472  	0.014441 
3603.028288  	0.014011 
3604.957104  	0.013443 
3606.885920  	0.013431 
3608.814736  	0.013838 
3610.743552  	0.012747 
3612.672368  	0.012101 
3614.601184  	0.011804 
3616.530000  	0.010512 
3618.458816  	0.010135 
3620.387632  	0.009843 
3622.316448  	0.008237 
3624.245264  	0.006862 
3626.174080  	0.006052 
3628.102896  	0.006438 
3630.031712  	0.007699 
3631.960528  	0.005842 
3633.889344  	0.004347 
3635.818160  	0.003159 
3637.746976  	0.002358 
3639.675792  	0.002043 
3641.604608  	0.001615 
3643.533424  	0.000663 
3645.462240  	-0.000810 
3647.391056  	-0.000889 
3649.319872  	-0.000527 
3651.248688  	-0.000690 
3653.177504  	-0.002962 
3655.106320  	-0.004935 
3657.035136  	-0.005095 
3658.963952  	-0.006163 
3660.892768  	-0.007321 
3662.821584  	-0.008005 
3664.750400  	-0.008172 
3666.679216  	-0.008765 
3668.608032  	-0.009090 
3670.536848  	-0.007939 
3672.465664  	-0.008472 
3674.394480  	-0.010514 
3676.323296  	-0.008690 
3678.252112  	-0.007102 
3680.180928  	-0.007103 
3682.109744  	-0.008188 
3684.038560  	-0.009138 
3685.967376  	-0.009764 
3687.896192  	-0.009781 
3689.825008  	-0.008399 
3691.753824  	-0.007647 
3693.682640  	-0.007840 
3695.611456  	-0.007888 
3697.540272  	-0.007302 
3699.469088  	-0.006970 
3701.397904  	-0.005551 
3703.326720  	-0.004580 
3705.255536  	-0.004950 
3707.184352  	-0.005284 
3709.113168  	-0.005038 
3711.041984  	-0.003544 
3712.970800  	-0.001916 
3714.899616  	-0.002189 
3716.828432  	-0.003098 
3718.757248  	-0.003305 
3720.686064  	-0.003203 
3722.614880  	-0.002253 
3724.543696  	-0.001794 
3726.472512  	-0.001542 
3728.401328  	-0.002676 
3730.330144  	-0.004624 
3732.258960  	-0.004267 
3734.187776  	-0.001335 
3736.116592  	0.001019 
3738.045408  	-0.000644 
3739.974224  	-0.002293 
3741.903040  	-0.003036 
3743.831856  	-0.002107 
3745.760672  	-0.000100 
3747.689488  	-0.002723 
3749.618304  	-0.003677 
3751.547120  	-0.001985 
3753.475936  	-0.000832 
3755.404752  	-0.002039 
3757.333568  	-0.002717 
3759.262384  	-0.002348 
3761.191200  	-0.001913 
3763.120016  	-0.002612 
3765.048832  	-0.002449 
3766.977648  	-0.002331 
3768.906464  	-0.002728 
3770.835280  	-0.002025 
3772.764096  	-0.002378 
3774.692912  	-0.002814 
3776.621728  	-0.003273 
3778.550544  	-0.003222 
3780.479360  	-0.002377 
3782.408176  	-0.002825 
3784.336992  	-0.003006 
3786.265808  	-0.002694 
3788.194624  	-0.002783 
3790.123440  	-0.003085 
3792.052256  	-0.003217 
3793.981072  	-0.003442 
3795.909888  	-0.003169 
3797.838704  	-0.002574 
3799.767520  	-0.003657 
3801.696336  	-0.002768 
3803.625152  	-0.002273 
3805.553968  	-0.003530 
3807.482784  	-0.002556 
3809.411600  	-0.002276 
3811.340416  	-0.002855 
3813.269232  	-0.003641 
3815.198048  	-0.004023 
3817.126864  	-0.002734 
3819.055680  	-0.003631 
3820.984496  	-0.002844 
3822.913312  	-0.001326 
3824.842128  	-0.002659 
3826.770944  	-0.002909 
3828.699760  	-0.002964 
3830.628576  	-0.003417 
3832.557392  	-0.003065 
3834.486208  	-0.003467 
3836.415024  	-0.003798 
3838.343840  	-0.002594 
3840.272656  	-0.001841 
3842.201472  	-0.002292 
3844.130288  	-0.002515 
3846.059104  	-0.002705 
3847.987920  	-0.003391 
3849.916736  	-0.003959 
3851.845552  	-0.004284 
3853.774368  	-0.001493 
3855.703184  	-0.000841 
3857.632000  	-0.002116 
3859.560816  	-0.003157 
3861.489632  	-0.003206 
3863.418448  	-0.002777 
3865.347264  	-0.002094 
3867.276080  	-0.002807 
3869.204896  	-0.002515 
3871.133712  	-0.000617 
3873.062528  	-0.001732 
3874.991344  	-0.001866 
3876.920160  	-0.002813 
3878.848976  	-0.003218 
3880.777792  	-0.001741 
3882.706608  	-0.001599 
3884.635424  	-0.002157 
3886.564240  	-0.001414 
3888.493056  	-0.002739 
3890.421872  	-0.002769 
3892.350688  	-0.001361 
3894.279504  	-0.001911 
3896.208320  	-0.002867 
3898.137136  	-0.002508 
3900.065952  	-0.001243 
3901.994768  	-0.000906 
3903.923584  	-0.000613 
3905.852400  	-0.000737 
3907.781216  	-0.002110 
3909.710032  	-0.002953 
3911.638848  	-0.003117 
3913.567664  	-0.003222 
3915.496480  	-0.002554 
3917.425296  	-0.001221 
3919.354112  	-0.001328 
3921.282928  	-0.001825 
3923.211744  	-0.002074 
3925.140560  	-0.001759 
3927.069376  	-0.002448 
3928.998192  	-0.002806 
3930.927008  	-0.001833 
3932.855824  	-0.001072 
3934.784640  	-0.001958 
3936.713456  	-0.002611 
3938.642272  	-0.002628 
3940.571088  	-0.002605 
3942.499904  	-0.001602 
3944.428720  	-0.001566 
3946.357536  	-0.002176 
3948.286352  	-0.001759 
3950.215168  	-0.002059 
3952.143984  	-0.002806 
3954.072800  	-0.003063 
3956.001616  	-0.002899 
3957.930432  	-0.002651 
3959.859248  	-0.002515 
3961.788064  	-0.002422 
3963.716880  	-0.002642 
3965.645696  	-0.002936 
3967.574512  	-0.002776 
3969.503328  	-0.002620 
3971.432144  	-0.002725 
3973.360960  	-0.002717 
3975.289776  	-0.002395 
3977.218592  	-0.002489 
3979.147408  	-0.002681 
3981.076224  	-0.002794 
3983.005040  	-0.002899 
3984.933856  	-0.002935 
3986.862672  	-0.002932 
3988.791488  	-0.002808 
3990.720304  	-0.002637 
3992.649120  	-0.002666 
3994.577936  	-0.002739 
3996.506752  	-0.002935 
3998.435568  	-0.002950 
4000.364384  	-0.002921 