##TITLE=No Description
##DATA TYPE=INFRARED SPECTRUM
##XUNITS=1/CM
##YUNITS=Abs
399.264912  	0.585509 
401.193728  	0.593326 
403.122544  	0.588186 
405.051360  	0.588309 
406.980176  	0.591194 
408.908992  	0.573540 
410.837808  	0.577163 
412.766624  	0.575273 
414.695440  	0.568917 
416.624256  	0.566302 
418.553072  	0.571751 
420.481888  	0.554503 
422.410704  	0.551830 
424.339520  	0.547619 
426.268336  	0.548548 
428.197152  	0.544485 
430.125968  	0.539433 
432.054784  	0.533702 
433.983600  	0.533961 
435.912416  	0.529061 
437.841232  	0.530058 
439.770048  	0.528126 
441.698864  	0.524761 
443.627680  	0.515167 
445.556496  	0.519501 
447.485312  	0.518116 
449.414128  	0.515429 
451.342944  	0.512804 
453.271760  	0.517125 
455.200576  	0.515010 
457.129392  	0.515309 
459.058208  	0.514256 
460.987024  	0.513310 
462.915840  	0.511660 
464.844656  	0.508633 
466.773472  	0.507113 
468.702288  	0.512613 
470.631104  	0.510587 
472.559920  	0.509512 
474.488736  	0.505604 
476.417552  	0.509624 
478.346368  	0.506138 
480.275184  	0.504103 
482.204000  	0.502111 
484.132816  	0.502867 
486.061632  	0.500108 
487.990448  	0.502172 
489.919264  	0.499137 
491.848080  	0.495505 
493.776896  	0.493433 
495.705712  	0.493791 
497.634528  	0.491090 
499.563344  	0.491155 
501.492160  	0.490550 
503.420976  	0.489815 
505.349792  	0.486859 
507.278608  	0.487709 
509.207424  	0.486022 
511.136240  	0.485717 
513.065056  	0.487925 
514.993872  	0.490835 
516.922688  	0.490288 
518.851504  	0.490837 
520.780320  	0.487348 
522.709136  	0.487902 
524.637952  	0.487935 
526.566768  	0.485121 
528.495584  	0.481515 
530.424400  	0.480378 
532.353216  	0.477239 
534.282032  	0.474646 
536.210848  	0.469889 
538.139664  	0.466110 
540.068480  	0.461991 
541.997296  	0.458021 
543.926112  	0.453407 
545.854928  	0.451745 
547.783744  	0.448791 
549.712560  	0.445972 
551.641376  	0.442231 
553.570192  	0.440523 
555.499008  	0.437023 
557.427824  	0.434212 
559.356640  	0.430414 
561.285456  	0.427137 
563.214272  	0.422336 
565.143088  	0.419984 
567.071904  	0.417004 
569.000720  	0.413495 
570.929536  	0.409598 
572.858352  	0.407104 
574.787168  	0.404392 
576.715984  	0.401813 
578.644800  	0.398033 
580.573616  	0.395179 
582.502432  	0.391755 
584.431248  	0.389723 
586.360064  	0.386972 
588.288880  	0.384987 
590.217696  	0.382664 
592.146512  	0.381466 
594.075328  	0.378617 
596.004144  	0.375494 
597.932960  	0.373461 
599.861776  	0.373261 
601.790592  	0.372352 
603.719408  	0.371058 
605.648224  	0.368857 
607.577040  	0.367835 
609.505856  	0.366725 
611.434672  	0.365835 
613.363488  	0.363457 
615.292304  	0.362146 
617.221120  	0.359633 
619.149936  	0.357498 
621.078752  	0.355497 
623.007568  	0.353266 
624.936384  	0.351079 
626.865200  	0.350289 
628.794016  	0.349097 
630.722832  	0.347576 
632.651648  	0.346324 
634.580464  	0.346378 
636.509280  	0.346074 
638.438096  	0.345269 
640.366912  	0.344400 
642.295728  	0.342640 
644.224544  	0.339686 
646.153360  	0.336875 
648.082176  	0.333639 
650.010992  	0.330577 
651.939808  	0.326842 
653.868624  	0.323481 
655.797440  	0.320065 
657.726256  	0.317312 
659.655072  	0.313693 
661.583888  	0.310278 
663.512704  	0.307443 
665.441520  	0.304392 
667.370336  	0.298374 
669.299152  	0.293660 
671.227968  	0.293328 
673.156784  	0.291740 
675.085600  	0.289564 
677.014416  	0.287783 
678.943232  	0.286109 
680.872048  	0.284029 
682.800864  	0.282271 
684.729680  	0.280943 
686.658496  	0.278943 
688.587312  	0.277439 
690.516128  	0.275464 
692.444944  	0.274164 
694.373760  	0.272693 
696.302576  	0.270684 
698.231392  	0.268297 
700.160208  	0.266014 
702.089024  	0.263439 
704.017840  	0.261685 
705.946656  	0.259607 
707.875472  	0.257537 
709.804288  	0.255307 
711.733104  	0.253341 
713.661920  	0.251504 
715.590736  	0.250487 
717.519552  	0.249824 
719.448368  	0.249984 
721.377184  	0.250264 
723.306000  	0.250222 
725.234816  	0.249562 
727.163632  	0.248158 
729.092448  	0.245748 
731.021264  	0.243398 
732.950080  	0.240977 
734.878896  	0.238380 
736.807712  	0.235980 
738.736528  	0.234261 
740.665344  	0.232523 
742.594160  	0.231172 
744.522976  	0.229724 
746.451792  	0.228414 
748.380608  	0.227294 
750.309424  	0.226399 
752.238240  	0.225498 
754.167056  	0.224934 
756.095872  	0.223641 
758.024688  	0.222157 
759.953504  	0.221136 
761.882320  	0.220822 
763.811136  	0.220485 
765.739952  	0.219963 
767.668768  	0.218829 
769.597584  	0.217045 
771.526400  	0.216006 
773.455216  	0.216974 
775.384032  	0.218636 
777.312848  	0.221150 
779.241664  	0.224028 
781.170480  	0.224599 
783.099296  	0.221757 
785.028112  	0.217076 
786.956928  	0.211743 
788.885744  	0.207606 
790.814560  	0.204288 
792.743376  	0.201678 
794.672192  	0.199820 
796.601008  	0.198723 
798.529824  	0.196981 
800.458640  	0.194081 
802.387456  	0.190908 
804.316272  	0.189078 
806.245088  	0.188139 
808.173904  	0.187407 
810.102720  	0.186688 
812.031536  	0.186225 
813.960352  	0.186052 
815.889168  	0.185679 
817.817984  	0.185022 
819.746800  	0.184542 
821.675616  	0.184041 
823.604432  	0.183305 
825.533248  	0.182267 
827.462064  	0.181017 
829.390880  	0.179609 
831.319696  	0.178251 
833.248512  	0.176687 
835.177328  	0.174973 
837.106144  	0.172760 
839.034960  	0.170125 
840.963776  	0.167472 
842.892592  	0.164957 
844.821408  	0.162189 
846.750224  	0.159568 
848.679040  	0.157423 
850.607856  	0.155401 
852.536672  	0.153515 
854.465488  	0.151752 
856.394304  	0.150103 
858.323120  	0.148363 
860.251936  	0.146740 
862.180752  	0.144656 
864.109568  	0.142682 
866.038384  	0.140862 
867.967200  	0.139033 
869.896016  	0.137727 
871.824832  	0.136723 
873.753648  	0.135961 
875.682464  	0.135733 
877.611280  	0.135397 
879.540096  	0.135134 
881.468912  	0.135926 
883.397728  	0.136354 
885.326544  	0.136473 
887.255360  	0.136146 
889.184176  	0.135220 
891.112992  	0.133535 
893.041808  	0.132146 
894.970624  	0.130514 
896.899440  	0.128066 
898.828256  	0.125087 
900.757072  	0.122281 
902.685888  	0.119969 
904.614704  	0.118764 
906.543520  	0.118843 
908.472336  	0.119880 
910.401152  	0.121642 
912.329968  	0.123967 
914.258784  	0.126388 
916.187600  	0.128609 
918.116416  	0.130152 
920.045232  	0.130593 
921.974048  	0.130107 
923.902864  	0.129480 
925.831680  	0.128683 
927.760496  	0.127709 
929.689312  	0.126647 
931.618128  	0.126273 
933.546944  	0.126122 
935.475760  	0.125884 
937.404576  	0.125746 
939.333392  	0.126022 
941.262208  	0.126817 
943.191024  	0.128343 
945.119840  	0.130992 
947.048656  	0.134587 
948.977472  	0.138974 
950.906288  	0.143938 
952.835104  	0.149338 
954.763920  	0.154848 
956.692736  	0.159919 
958.621552  	0.164185 
960.550368  	0.166857 
962.479184  	0.167832 
964.408000  	0.166561 
966.336816  	0.163299 
968.265632  	0.157853 
970.194448  	0.151155 
972.123264  	0.143482 
974.052080  	0.135145 
975.980896  	0.126919 
977.909712  	0.119473 
979.838528  	0.113170 
981.767344  	0.107811 
983.696160  	0.103875 
985.624976  	0.101790 
987.553792  	0.101610 
989.482608  	0.102754 
991.411424  	0.105357 
993.340240  	0.109183 
995.269056  	0.113908 
997.197872  	0.119001 
999.126688  	0.123778 
1001.055504  	0.128529 
1002.984320  	0.133221 
1004.913136  	0.137827 
1006.841952  	0.141846 
1008.770768  	0.145067 
1010.699584  	0.147161 
1012.628400  	0.148411 
1014.557216  	0.149020 
1016.486032  	0.149273 
1018.414848  	0.149146 
1020.343664  	0.149278 
1022.272480  	0.149236 
1024.201296  	0.148343 
1026.130112  	0.145568 
1028.058928  	0.144607 
1029.987744  	0.147279 
1031.916560  	0.148484 
1033.845376  	0.148451 
1035.774192  	0.147866 
1037.703008  	0.148191 
1039.631824  	0.151344 
1041.560640  	0.155411 
1043.489456  	0.161072 
1045.418272  	0.168531 
1047.347088  	0.178033 
1049.275904  	0.188231 
1051.204720  	0.198466 
1053.133536  	0.207493 
1055.062352  	0.214549 
1056.991168  	0.218594 
1058.919984  	0.223169 
1060.848800  	0.226339 
1062.777616  	0.225565 
1064.706432  	0.220627 
1066.635248  	0.216465 
1068.564064  	0.216133 
1070.492880  	0.213952 
1072.421696  	0.208551 
1074.350512  	0.203305 
1076.279328  	0.199824 
1078.208144  	0.198279 
1080.136960  	0.198048 
1082.065776  	0.198321 
1083.994592  	0.198647 
1085.923408  	0.199061 
1087.852224  	0.198385 
1089.781040  	0.197402 
1091.709856  	0.195794 
1093.638672  	0.192027 
1095.567488  	0.186128 
1097.496304  	0.179338 
1099.425120  	0.171833 
1101.353936  	0.164217 
1103.282752  	0.156108 
1105.211568  	0.147969 
1107.140384  	0.140345 
1109.069200  	0.132636 
1110.998016  	0.125240 
1112.926832  	0.118549 
1114.855648  	0.112074 
1116.784464  	0.105636 
1118.713280  	0.099799 
1120.642096  	0.094545 
1122.570912  	0.089527 
1124.499728  	0.084559 
1126.428544  	0.079785 
1128.357360  	0.075397 
1130.286176  	0.071448 
1132.214992  	0.068165 
1134.143808  	0.065263 
1136.072624  	0.062792 
1138.001440  	0.060386 
1139.930256  	0.057847 
1141.859072  	0.055694 
1143.787888  	0.053679 
1145.716704  	0.051982 
1147.645520  	0.050434 
1149.574336  	0.049267 
1151.503152  	0.048363 
1153.431968  	0.047957 
1155.360784  	0.047929 
1157.289600  	0.048332 
1159.218416  	0.049018 
1161.147232  	0.050088 
1163.076048  	0.051110 
1165.004864  	0.052530 
1166.933680  	0.053965 
1168.862496  	0.055702 
1170.791312  	0.057678 
1172.720128  	0.059480 
1174.648944  	0.061200 
1176.577760  	0.063131 
1178.506576  	0.065071 
1180.435392  	0.066970 
1182.364208  	0.068850 
1184.293024  	0.070935 
1186.221840  	0.073093 
1188.150656  	0.075305 
1190.079472  	0.078129 
1192.008288  	0.081695 
1193.937104  	0.085613 
1195.865920  	0.089985 
1197.794736  	0.094454 
1199.723552  	0.099532 
1201.652368  	0.104961 
1203.581184  	0.110564 
1205.510000  	0.115927 
1207.438816  	0.121379 
1209.367632  	0.126596 
1211.296448  	0.131686 
1213.225264  	0.136350 
1215.154080  	0.140055 
1217.082896  	0.143045 
1219.011712  	0.145495 
1220.940528  	0.147674 
1222.869344  	0.149315 
1224.798160  	0.150522 
1226.726976  	0.151385 
1228.655792  	0.152130 
1230.584608  	0.152341 
1232.513424  	0.152134 
1234.442240  	0.151421 
1236.371056  	0.150138 
1238.299872  	0.147681 
1240.228688  	0.142865 
1242.157504  	0.138075 
1244.086320  	0.134278 
1246.015136  	0.128789 
1247.943952  	0.122574 
1249.872768  	0.116487 
1251.801584  	0.111260 
1253.730400  	0.106027 
1255.659216  	0.100814 
1257.588032  	0.095732 
1259.516848  	0.091123 
1261.445664  	0.086881 
1263.374480  	0.082984 
1265.303296  	0.079639 
1267.232112  	0.077088 
1269.160928  	0.075083 
1271.089744  	0.073671 
1273.018560  	0.072902 
1274.947376  	0.072613 
1276.876192  	0.072452 
1278.805008  	0.071876 
1280.733824  	0.070597 
1282.662640  	0.068320 
1284.591456  	0.065392 
1286.520272  	0.062547 
1288.449088  	0.060102 
1290.377904  	0.057983 
1292.306720  	0.056512 
1294.235536  	0.054767 
1296.164352  	0.052406 
1298.093168  	0.049535 
1300.021984  	0.046534 
1301.950800  	0.043816 
1303.879616  	0.041559 
1305.808432  	0.039668 
1307.737248  	0.038100 
1309.666064  	0.036650 
1311.594880  	0.036092 
1313.523696  	0.035890 
1315.452512  	0.035497 
1317.381328  	0.035672 
1319.310144  	0.036150 
1321.238960  	0.036411 
1323.167776  	0.036895 
1325.096592  	0.037342 
1327.025408  	0.037523 
1328.954224  	0.037231 
1330.883040  	0.036640 
1332.811856  	0.035766 
1334.740672  	0.035183 
1336.669488  	0.035006 
1338.598304  	0.035361 
1340.527120  	0.034707 
1342.455936  	0.033062 
1344.384752  	0.032599 
1346.313568  	0.032981 
1348.242384  	0.033774 
1350.171200  	0.035016 
1352.100016  	0.036433 
1354.028832  	0.038003 
1355.957648  	0.039592 
1357.886464  	0.041034 
1359.815280  	0.042488 
1361.744096  	0.044365 
1363.672912  	0.045477 
1365.601728  	0.045013 
1367.530544  	0.045001 
1369.459360  	0.044907 
1371.388176  	0.043853 
1373.316992  	0.042697 
1375.245808  	0.040825 
1377.174624  	0.038425 
1379.103440  	0.036231 
1381.032256  	0.034148 
1382.961072  	0.032671 
1384.889888  	0.032297 
1386.818704  	0.032968 
1388.747520  	0.032389 
1390.676336  	0.030092 
1392.605152  	0.026816 
1394.533968  	0.026315 
1396.462784  	0.029592 
1398.391600  	0.030551 
1400.320416  	0.029986 
1402.249232  	0.029168 
1404.178048  	0.029854 
1406.106864  	0.030700 
1408.035680  	0.031871 
1409.964496  	0.033893 
1411.893312  	0.036363 
1413.822128  	0.038627 
1415.750944  	0.041361 
1417.679760  	0.043648 
1419.608576  	0.044537 
1421.537392  	0.043801 
1423.466208  	0.043582 
1425.395024  	0.042667 
1427.323840  	0.041124 
1429.252656  	0.040037 
1431.181472  	0.039208 
1433.110288  	0.038661 
1435.039104  	0.038827 
1436.967920  	0.039797 
1438.896736  	0.039704 
1440.825552  	0.039625 
1442.754368  	0.040097 
1444.683184  	0.040149 
1446.612000  	0.040296 
1448.540816  	0.040295 
1450.469632  	0.040141 
1452.398448  	0.040328 
1454.327264  	0.040582 
1456.256080  	0.041796 
1458.184896  	0.043119 
1460.113712  	0.042578 
1462.042528  	0.042091 
1463.971344  	0.042375 
1465.900160  	0.044146 
1467.828976  	0.045638 
1469.757792  	0.047403 
1471.686608  	0.050592 
1473.615424  	0.055375 
1475.544240  	0.058068 
1477.473056  	0.060009 
1479.401872  	0.060649 
1481.330688  	0.061429 
1483.259504  	0.061572 
1485.188320  	0.061317 
1487.117136  	0.060666 
1489.045952  	0.060180 
1490.974768  	0.057707 
1492.903584  	0.054159 
1494.832400  	0.051212 
1496.761216  	0.048504 
1498.690032  	0.045696 
1500.618848  	0.043598 
1502.547664  	0.041211 
1504.476480  	0.038645 
1506.405296  	0.038853 
1508.334112  	0.040576 
1510.262928  	0.038470 
1512.191744  	0.036538 
1514.120560  	0.035330 
1516.049376  	0.035641 
1517.978192  	0.035798 
1519.907008  	0.035931 
1521.835824  	0.038107 
1523.764640  	0.040018 
1525.693456  	0.042195 
1527.622272  	0.044081 
1529.551088  	0.044725 
1531.479904  	0.044908 
1533.408720  	0.044715 
1535.337536  	0.043541 
1537.266352  	0.040918 
1539.195168  	0.038057 
1541.123984  	0.037242 
1543.052800  	0.037689 
1544.981616  	0.037018 
1546.910432  	0.035144 
1548.839248  	0.034589 
1550.768064  	0.035038 
1552.696880  	0.034249 
1554.625696  	0.034709 
1556.554512  	0.033975 
1558.483328  	0.034743 
1560.412144  	0.039411 
1562.340960  	0.040694 
1564.269776  	0.042135 
1566.198592  	0.045160 
1568.127408  	0.047508 
1570.056224  	0.052042 
1571.985040  	0.055467 
1573.913856  	0.056829 
1575.842672  	0.058168 
1577.771488  	0.060756 
1579.700304  	0.060750 
1581.629120  	0.060640 
1583.557936  	0.060743 
1585.486752  	0.061842 
1587.415568  	0.063844 
1589.344384  	0.067265 
1591.273200  	0.071157 
1593.202016  	0.075729 
1595.130832  	0.080130 
1597.059648  	0.084395 
1598.988464  	0.087695 
1600.917280  	0.090550 
1602.846096  	0.092166 
1604.774912  	0.093143 
1606.703728  	0.093070 
1608.632544  	0.092798 
1610.561360  	0.091908 
1612.490176  	0.091277 
1614.418992  	0.090415 
1616.347808  	0.091200 
1618.276624  	0.093983 
1620.205440  	0.096842 
1622.134256  	0.099672 
1624.063072  	0.105280 
1625.991888  	0.110269 
1627.920704  	0.116063 
1629.849520  	0.122498 
1631.778336  	0.128084 
1633.707152  	0.132157 
1635.635968  	0.138727 
1637.564784  	0.145770 
1639.493600  	0.149589 
1641.422416  	0.152739 
1643.351232  	0.154964 
1645.280048  	0.155875 
1647.208864  	0.158038 
1649.137680  	0.158526 
1651.066496  	0.156876 
1652.995312  	0.155622 
1654.924128  	0.157498 
1656.852944  	0.155880 
1658.781760  	0.154275 
1660.710576  	0.152677 
1662.639392  	0.151355 
1664.568208  	0.150228 
1666.497024  	0.148801 
1668.425840  	0.147052 
1670.354656  	0.146262 
1672.283472  	0.145331 
1674.212288  	0.144365 
1676.141104  	0.144732 
1678.069920  	0.145089 
1679.998736  	0.145571 
1681.927552  	0.145226 
1683.856368  	0.144888 
1685.785184  	0.146477 
1687.714000  	0.146061 
1689.642816  	0.145089 
1691.571632  	0.143225 
1693.500448  	0.141013 
1695.429264  	0.138367 
1697.358080  	0.136160 
1699.286896  	0.132675 
1701.215712  	0.129491 
1703.144528  	0.126216 
1705.073344  	0.121968 
1707.002160  	0.117485 
1708.930976  	0.113302 
1710.859792  	0.108731 
1712.788608  	0.103697 
1714.717424  	0.098424 
1716.646240  	0.092361 
1718.575056  	0.086005 
1720.503872  	0.079995 
1722.432688  	0.074578 
1724.361504  	0.068567 
1726.290320  	0.062992 
1728.219136  	0.058008 
1730.147952  	0.053702 
1732.076768  	0.049047 
1734.005584  	0.044667 
1735.934400  	0.039840 
1737.863216  	0.036267 
1739.792032  	0.032307 
1741.720848  	0.029657 
1743.649664  	0.027385 
1745.578480  	0.024734 
1747.507296  	0.022295 
1749.436112  	0.021131 
1751.364928  	0.020128 
1753.293744  	0.018398 
1755.222560  	0.016679 
1757.151376  	0.016219 
1759.080192  	0.014880 
1761.009008  	0.014306 
1762.937824  	0.013989 
1764.866640  	0.013390 
1766.795456  	0.013006 
1768.724272  	0.013130 
1770.653088  	0.011564 
1772.581904  	0.011427 
1774.510720  	0.011723 
1776.439536  	0.011729 
1778.368352  	0.011323 
1780.297168  	0.011457 
1782.225984  	0.011146 
1784.154800  	0.011169 
1786.083616  	0.011038 
1788.012432  	0.010488 
1789.941248  	0.010186 
1791.870064  	0.010505 
1793.798880  	0.010365 
1795.727696  	0.010415 
1797.656512  	0.009844 
1799.585328  	0.009824 
1801.514144  	0.010175 
1803.442960  	0.009664 
1805.371776  	0.008931 
1807.300592  	0.008804 
1809.229408  	0.008513 
1811.158224  	0.008829 
1813.087040  	0.008623 
1815.015856  	0.008189 
1816.944672  	0.008175 
1818.873488  	0.008320 
1820.802304  	0.008204 
1822.731120  	0.008397 
1824.659936  	0.008648 
1826.588752  	0.008715 
1828.517568  	0.007998 
1830.446384  	0.008634 
1832.375200  	0.008676 
1834.304016  	0.008267 
1836.232832  	0.008066 
1838.161648  	0.008552 
1840.090464  	0.008327 
1842.019280  	0.008202 
1843.948096  	0.008356 
1845.876912  	0.008906 
1847.805728  	0.008724 
1849.734544  	0.008592 
1851.663360  	0.008082 
1853.592176  	0.008148 
1855.520992  	0.007955 
1857.449808  	0.008253 
1859.378624  	0.008187 
1861.307440  	0.008089 
1863.236256  	0.007635 
1865.165072  	0.007664 
1867.093888  	0.007946 
1869.022704  	0.008901 
1870.951520  	0.008550 
1872.880336  	0.008189 
1874.809152  	0.007811 
1876.737968  	0.007859 
1878.666784  	0.007773 
1880.595600  	0.007778 
1882.524416  	0.007673 
1884.453232  	0.007692 
1886.382048  	0.007408 
1888.310864  	0.007720 
1890.239680  	0.008079 
1892.168496  	0.007764 
1894.097312  	0.007344 
1896.026128  	0.007634 
1897.954944  	0.007276 
1899.883760  	0.007162 
1901.812576  	0.007026 
1903.741392  	0.007136 
1905.670208  	0.007047 
1907.599024  	0.007285 
1909.527840  	0.007067 
1911.456656  	0.007019 
1913.385472  	0.006931 
1915.314288  	0.007069 
1917.243104  	0.007162 
1919.171920  	0.007411 
1921.100736  	0.007595 
1923.029552  	0.008442 
1924.958368  	0.007264 
1926.887184  	0.006800 
1928.816000  	0.006309 
1930.744816  	0.005866 
1932.673632  	0.005749 
1934.602448  	0.006435 
1936.531264  	0.006948 
1938.460080  	0.006885 
1940.388896  	0.006341 
1942.317712  	0.006828 
1944.246528  	0.006966 
1946.175344  	0.007418 
1948.104160  	0.006298 
1950.032976  	0.006133 
1951.961792  	0.006480 
1953.890608  	0.006360 
1955.819424  	0.005481 
1957.748240  	0.005857 
1959.677056  	0.006089 
1961.605872  	0.006004 
1963.534688  	0.005202 
1965.463504  	0.006523 
1967.392320  	0.006621 
1969.321136  	0.005838 
1971.249952  	0.006601 
1973.178768  	0.008197 
1975.107584  	0.006731 
1977.036400  	0.005603 
1978.965216  	0.007498 
1980.894032  	0.008278 
1982.822848  	0.006676 
1984.751664  	0.006272 
1986.680480  	0.006504 
1988.609296  	0.008162 
1990.538112  	0.008220 
1992.466928  	0.008163 
1994.395744  	0.007252 
1996.324560  	0.006692 
1998.253376  	0.006404 
2000.182192  	0.006756 
2002.111008  	0.006909 
2004.039824  	0.007184 
2005.968640  	0.006124 
2007.897456  	0.007085 
2009.826272  	0.007033 
2011.755088  	0.005828 
2013.683904  	0.005995 
2015.612720  	0.006798 
2017.541536  	0.006771 
2019.470352  	0.007384 
2021.399168  	0.007318 
2023.327984  	0.007337 
2025.256800  	0.006344 
2027.185616  	0.006258 
2029.114432  	0.006816 
2031.043248  	0.008404 
2032.972064  	0.008305 
2034.900880  	0.008167 
2036.829696  	0.008206 
2038.758512  	0.008249 
2040.687328  	0.008000 
2042.616144  	0.008061 
2044.544960  	0.007576 
2046.473776  	0.008182 
2048.402592  	0.008254 
2050.331408  	0.008664 
2052.260224  	0.008245 
2054.189040  	0.008323 
2056.117856  	0.008080 
2058.046672  	0.007831 
2059.975488  	0.007138 
2061.904304  	0.007436 
2063.833120  	0.008289 
2065.761936  	0.008636 
2067.690752  	0.007883 
2069.619568  	0.007206 
2071.548384  	0.006434 
2073.477200  	0.006578 
2075.406016  	0.007311 
2077.334832  	0.008023 
2079.263648  	0.007633 
2081.192464  	0.007406 
2083.121280  	0.007819 
2085.050096  	0.008116 
2086.978912  	0.007863 
2088.907728  	0.007845 
2090.836544  	0.007587 
2092.765360  	0.007231 
2094.694176  	0.007050 
2096.622992  	0.007122 
2098.551808  	0.006833 
2100.480624  	0.006905 
2102.409440  	0.006738 
2104.338256  	0.007106 
2106.267072  	0.007430 
2108.195888  	0.007649 
2110.124704  	0.007937 
2112.053520  	0.008293 
2113.982336  	0.008018 
2115.911152  	0.008027 
2117.839968  	0.007367 
2119.768784  	0.006913 
2121.697600  	0.006810 
2123.626416  	0.006413 
2125.555232  	0.005972 
2127.484048  	0.006140 
2129.412864  	0.005816 
2131.341680  	0.005646 
2133.270496  	0.006599 
2135.199312  	0.006869 
2137.128128  	0.006404 
2139.056944  	0.006451 
2140.985760  	0.005637 
2142.914576  	0.006310 
2144.843392  	0.006079 
2146.772208  	0.005798 
2148.701024  	0.006115 
2150.629840  	0.007468 
2152.558656  	0.006328 
2154.487472  	0.004840 
2156.416288  	0.004501 
2158.345104  	0.006925 
2160.273920  	0.010011 
2162.202736  	0.010180 
2164.131552  	0.009337 
2166.060368  	0.010867 
2167.989184  	0.009532 
2169.918000  	0.008076 
2171.846816  	0.007939 
2173.775632  	0.008402 
2175.704448  	0.009084 
2177.633264  	0.009853 
2179.562080  	0.009001 
2181.490896  	0.008052 
2183.419712  	0.007807 
2185.348528  	0.008483 
2187.277344  	0.008115 
2189.206160  	0.008097 
2191.134976  	0.009113 
2193.063792  	0.010301 
2194.992608  	0.010255 
2196.921424  	0.009584 
2198.850240  	0.009540 
2200.779056  	0.009394 
2202.707872  	0.008853 
2204.636688  	0.009108 
2206.565504  	0.009410 
2208.494320  	0.009951 
2210.423136  	0.008901 
2212.351952  	0.008881 
2214.280768  	0.009108 
2216.209584  	0.008888 
2218.138400  	0.008854 
2220.067216  	0.008627 
2221.996032  	0.008131 
2223.924848  	0.007579 
2225.853664  	0.007944 
2227.782480  	0.008955 
2229.711296  	0.009202 
2231.640112  	0.008893 
2233.568928  	0.008486 
2235.497744  	0.008126 
2237.426560  	0.007924 
2239.355376  	0.008299 
2241.284192  	0.008189 
2243.213008  	0.008251 
2245.141824  	0.008331 
2247.070640  	0.008074 
2248.999456  	0.007726 
2250.928272  	0.008010 
2252.857088  	0.007932 
2254.785904  	0.007849 
2256.714720  	0.008108 
2258.643536  	0.008580 
2260.572352  	0.008345 
2262.501168  	0.008415 
2264.429984  	0.008762 
2266.358800  	0.009305 
2268.287616  	0.009258 
2270.216432  	0.009059 
2272.145248  	0.008607 
2274.074064  	0.008636 
2276.002880  	0.008907 
2277.931696  	0.009358 
2279.860512  	0.009642 
2281.789328  	0.009886 
2283.718144  	0.009746 
2285.646960  	0.009710 
2287.575776  	0.009716 
2289.504592  	0.009374 
2291.433408  	0.008996 
2293.362224  	0.009021 
2295.291040  	0.009184 
2297.219856  	0.009387 
2299.148672  	0.009446 
2301.077488  	0.009325 
2303.006304  	0.009383 
2304.935120  	0.009480 
2306.863936  	0.009200 
2308.792752  	0.008954 
2310.721568  	0.008741 
2312.650384  	0.008312 
2314.579200  	0.007670 
2316.508016  	0.006926 
2318.436832  	0.005930 
2320.365648  	0.005172 
2322.294464  	0.004742 
2324.223280  	0.003538 
2326.152096  	0.001287 
2328.080912  	-0.000216 
2330.009728  	-0.001369 
2331.938544  	-0.002251 
2333.867360  	-0.003451 
2335.796176  	-0.004518 
2337.724992  	-0.005105 
2339.653808  	-0.005319 
2341.582624  	-0.004899 
2343.511440  	-0.003114 
2345.440256  	-0.000546 
2347.369072  	0.002475 
2349.297888  	0.002494 
2351.226704  	-0.000556 
2353.155520  	-0.003970 
2355.084336  	-0.006744 
2357.013152  	-0.008807 
2358.941968  	-0.010041 
2360.870784  	-0.010494 
2362.799600  	-0.009422 
2364.728416  	-0.007914 
2366.657232  	-0.006053 
2368.586048  	-0.003946 
2370.514864  	-0.001321 
2372.443680  	0.001542 
2374.372496  	0.004249 
2376.301312  	0.006155 
2378.230128  	0.007811 
2380.158944  	0.008764 
2382.087760  	0.009209 
2384.016576  	0.009424 
2385.945392  	0.009485 
2387.874208  	0.009131 
2389.803024  	0.008874 
2391.731840  	0.008725 
2393.660656  	0.008833 
2395.589472  	0.009007 
2397.518288  	0.009162 
2399.447104  	0.008999 
2401.375920  	0.008772 
2403.304736  	0.008872 
2405.233552  	0.009045 
2407.162368  	0.009171 
2409.091184  	0.009069 
2411.020000  	0.009025 
2412.948816  	0.009196 
2414.877632  	0.009063 
2416.806448  	0.009155 
2418.735264  	0.009498 
2420.664080  	0.009385 
2422.592896  	0.009141 
2424.521712  	0.009244 
2426.450528  	0.009435 
2428.379344  	0.009390 
2430.308160  	0.009317 
2432.236976  	0.009529 
2434.165792  	0.009759 
2436.094608  	0.010089 
2438.023424  	0.010305 
2439.952240  	0.010323 
2441.881056  	0.010334 
2443.809872  	0.010196 
2445.738688  	0.010168 
2447.667504  	0.010303 
2449.596320  	0.010175 
2451.525136  	0.010207 
2453.453952  	0.010325 
2455.382768  	0.010530 
2457.311584  	0.010683 
2459.240400  	0.010624 
2461.169216  	0.010470 
2463.098032  	0.010451 
2465.026848  	0.010377 
2466.955664  	0.010313 
2468.884480  	0.010131 
2470.813296  	0.010365 
2472.742112  	0.010384 
2474.670928  	0.010258 
2476.599744  	0.010312 
2478.528560  	0.010329 
2480.457376  	0.010506 
2482.386192  	0.010619 
2484.315008  	0.010634 
2486.243824  	0.010640 
2488.172640  	0.010654 
2490.101456  	0.010733 
2492.030272  	0.011027 
2493.959088  	0.010937 
2495.887904  	0.010778 
2497.816720  	0.010949 
2499.745536  	0.011082 
2501.674352  	0.011214 
2503.603168  	0.011214 
2505.531984  	0.011102 
2507.460800  	0.011013 
2509.389616  	0.011124 
2511.318432  	0.011144 
2513.247248  	0.011223 
2515.176064  	0.011312 
2517.104880  	0.011649 
2519.033696  	0.011720 
2520.962512  	0.011472 
2522.891328  	0.011613 
2524.820144  	0.011817 
2526.748960  	0.011812 
2528.677776  	0.012082 
2530.606592  	0.012230 
2532.535408  	0.012095 
2534.464224  	0.012087 
2536.393040  	0.012204 
2538.321856  	0.012069 
2540.250672  	0.012045 
2542.179488  	0.012083 
2544.108304  	0.012294 
2546.037120  	0.012338 
2547.965936  	0.012615 
2549.894752  	0.012652 
2551.823568  	0.012616 
2553.752384  	0.012728 
2555.681200  	0.012824 
2557.610016  	0.012770 
2559.538832  	0.012753 
2561.467648  	0.012935 
2563.396464  	0.013243 
2565.325280  	0.013539 
2567.254096  	0.013656 
2569.182912  	0.013378 
2571.111728  	0.013177 
2573.040544  	0.013015 
2574.969360  	0.012980 
2576.898176  	0.013205 
2578.826992  	0.013458 
2580.755808  	0.013488 
2582.684624  	0.013583 
2584.613440  	0.013606 
2586.542256  	0.013888 
2588.471072  	0.014024 
2590.399888  	0.013902 
2592.328704  	0.013909 
2594.257520  	0.014051 
2596.186336  	0.014265 
2598.115152  	0.014269 
2600.043968  	0.014072 
2601.972784  	0.014122 
2603.901600  	0.014222 
2605.830416  	0.014421 
2607.759232  	0.014415 
2609.688048  	0.014501 
2611.616864  	0.014841 
2613.545680  	0.014994 
2615.474496  	0.014818 
2617.403312  	0.014800 
2619.332128  	0.015074 
2621.260944  	0.015241 
2623.189760  	0.015164 
2625.118576  	0.015174 
2627.047392  	0.015318 
2628.976208  	0.015737 
2630.905024  	0.015899 
2632.833840  	0.015894 
2634.762656  	0.015862 
2636.691472  	0.015858 
2638.620288  	0.015892 
2640.549104  	0.016050 
2642.477920  	0.016274 
2644.406736  	0.016255 
2646.335552  	0.016344 
2648.264368  	0.016517 
2650.193184  	0.016571 
2652.122000  	0.016747 
2654.050816  	0.016931 
2655.979632  	0.016846 
2657.908448  	0.016832 
2659.837264  	0.016908 
2661.766080  	0.016884 
2663.694896  	0.016881 
2665.623712  	0.016767 
2667.552528  	0.016747 
2669.481344  	0.016923 
2671.410160  	0.017088 
2673.338976  	0.017180 
2675.267792  	0.017289 
2677.196608  	0.017376 
2679.125424  	0.017508 
2681.054240  	0.017579 
2682.983056  	0.017602 
2684.911872  	0.017708 
2686.840688  	0.017815 
2688.769504  	0.017982 
2690.698320  	0.018121 
2692.627136  	0.018174 
2694.555952  	0.018151 
2696.484768  	0.018068 
2698.413584  	0.018130 
2700.342400  	0.018238 
2702.271216  	0.018428 
2704.200032  	0.018643 
2706.128848  	0.018741 
2708.057664  	0.018717 
2709.986480  	0.018710 
2711.915296  	0.018776 
2713.844112  	0.018843 
2715.772928  	0.019023 
2717.701744  	0.019242 
2719.630560  	0.019226 
2721.559376  	0.019175 
2723.488192  	0.019207 
2725.417008  	0.019455 
2727.345824  	0.019577 
2729.274640  	0.019569 
2731.203456  	0.019573 
2733.132272  	0.019694 
2735.061088  	0.019887 
2736.989904  	0.019935 
2738.918720  	0.019942 
2740.847536  	0.019877 
2742.776352  	0.019918 
2744.705168  	0.019997 
2746.633984  	0.020013 
2748.562800  	0.020141 
2750.491616  	0.020296 
2752.420432  	0.020342 
2754.349248  	0.020382 
2756.278064  	0.020384 
2758.206880  	0.020439 
2760.135696  	0.020590 
2762.064512  	0.020550 
2763.993328  	0.020479 
2765.922144  	0.020565 
2767.850960  	0.020517 
2769.779776  	0.020479 
2771.708592  	0.020605 
2773.637408  	0.020611 
2775.566224  	0.020522 
2777.495040  	0.020428 
2779.423856  	0.020508 
2781.352672  	0.020684 
2783.281488  	0.020742 
2785.210304  	0.020665 
2787.139120  	0.020768 
2789.067936  	0.020979 
2790.996752  	0.021009 
2792.925568  	0.021038 
2794.854384  	0.021032 
2796.783200  	0.020994 
2798.712016  	0.020933 
2800.640832  	0.020982 
2802.569648  	0.021141 
2804.498464  	0.021198 
2806.427280  	0.021211 
2808.356096  	0.021299 
2810.284912  	0.021384 
2812.213728  	0.021300 
2814.142544  	0.021272 
2816.071360  	0.021364 
2818.000176  	0.021254 
2819.928992  	0.021095 
2821.857808  	0.021093 
2823.786624  	0.021056 
2825.715440  	0.020892 
2827.644256  	0.020762 
2829.573072  	0.020709 
2831.501888  	0.020470 
2833.430704  	0.020237 
2835.359520  	0.020049 
2837.288336  	0.019846 
2839.217152  	0.019643 
2841.145968  	0.019337 
2843.074784  	0.019074 
2845.003600  	0.018949 
2846.932416  	0.019061 
2848.861232  	0.019037 
2850.790048  	0.018653 
2852.718864  	0.018035 
2854.647680  	0.017271 
2856.576496  	0.016547 
2858.505312  	0.015853 
2860.434128  	0.015129 
2862.362944  	0.014318 
2864.291760  	0.013442 
2866.220576  	0.012703 
2868.149392  	0.012397 
2870.078208  	0.012425 
2872.007024  	0.012375 
2873.935840  	0.012313 
2875.864656  	0.012238 
2877.793472  	0.012037 
2879.722288  	0.011603 
2881.651104  	0.011063 
2883.579920  	0.010671 
2885.508736  	0.010680 
2887.437552  	0.010935 
2889.366368  	0.010965 
2891.295184  	0.010623 
2893.224000  	0.010434 
2895.152816  	0.010648 
2897.081632  	0.010277 
2899.010448  	0.008613 
2900.939264  	0.007354 
2902.868080  	0.008617 
2904.796896  	0.009928 
2906.725712  	0.010497 
2908.654528  	0.011029 
2910.583344  	0.011399 
2912.512160  	0.012466 
2914.440976  	0.013985 
2916.369792  	0.014899 
2918.298608  	0.015516 
2920.227424  	0.015994 
2922.156240  	0.016339 
2924.085056  	0.016734 
2926.013872  	0.017298 
2927.942688  	0.017977 
2929.871504  	0.018717 
2931.800320  	0.019357 
2933.729136  	0.019750 
2935.657952  	0.019957 
2937.586768  	0.020249 
2939.515584  	0.020284 
2941.444400  	0.020346 
2943.373216  	0.020460 
2945.302032  	0.020515 
2947.230848  	0.020473 
2949.159664  	0.020149 
2951.088480  	0.019482 
2953.017296  	0.018792 
2954.946112  	0.018075 
2956.874928  	0.017275 
2958.803744  	0.016457 
2960.732560  	0.015908 
2962.661376  	0.015345 
2964.590192  	0.014278 
2966.519008  	0.013091 
2968.447824  	0.011991 
2970.376640  	0.011243 
2972.305456  	0.010667 
2974.234272  	0.010702 
2976.163088  	0.010884 
2978.091904  	0.010845 
2980.020720  	0.010877 
2981.949536  	0.011113 
2983.878352  	0.010645 
2985.807168  	0.009594 
2987.735984  	0.008909 
2989.664800  	0.009480 
2991.593616  	0.012278 
2993.522432  	0.013788 
2995.451248  	0.014293 
2997.380064  	0.015120 
2999.308880  	0.016280 
3001.237696  	0.017651 
3003.166512  	0.018861 
3005.095328  	0.020108 
3007.024144  	0.021423 
3008.952960  	0.022742 
3010.881776  	0.024110 
3012.810592  	0.025381 
3014.739408  	0.026235 
3016.668224  	0.027303 
3018.597040  	0.028517 
3020.525856  	0.029387 
3022.454672  	0.030239 
3024.383488  	0.031307 
3026.312304  	0.032314 
3028.241120  	0.033016 
3030.169936  	0.033553 
3032.098752  	0.034439 
3034.027568  	0.035009 
3035.956384  	0.035299 
3037.885200  	0.035737 
3039.814016  	0.036428 
3041.742832  	0.037043 
3043.671648  	0.037522 
3045.600464  	0.037878 
3047.529280  	0.038146 
3049.458096  	0.038346 
3051.386912  	0.038530 
3053.315728  	0.038867 
3055.244544  	0.039392 
3057.173360  	0.039895 
3059.102176  	0.040109 
3061.030992  	0.040363 
3062.959808  	0.040758 
3064.888624  	0.041280 
3066.817440  	0.041737 
3068.746256  	0.041946 
3070.675072  	0.042022 
3072.603888  	0.042393 
3074.532704  	0.042909 
3076.461520  	0.043303 
3078.390336  	0.043672 
3080.319152  	0.044225 
3082.247968  	0.044635 
3084.176784  	0.044979 
3086.105600  	0.045225 
3088.034416  	0.045530 
3089.963232  	0.045894 
3091.892048  	0.046217 
3093.820864  	0.046374 
3095.749680  	0.046723 
3097.678496  	0.047027 
3099.607312  	0.047382 
3101.536128  	0.047812 
3103.464944  	0.048289 
3105.393760  	0.048577 
3107.322576  	0.048850 
3109.251392  	0.049195 
3111.180208  	0.049471 
3113.109024  	0.049680 
3115.037840  	0.049708 
3116.966656  	0.050027 
3118.895472  	0.050437 
3120.824288  	0.050604 
3122.753104  	0.050959 
3124.681920  	0.051307 
3126.610736  	0.051346 
3128.539552  	0.051484 
3130.468368  	0.051653 
3132.397184  	0.051760 
3134.326000  	0.051991 
3136.254816  	0.052243 
3138.183632  	0.052505 
3140.112448  	0.052620 
3142.041264  	0.052616 
3143.970080  	0.052815 
3145.898896  	0.053237 
3147.827712  	0.053627 
3149.756528  	0.053919 
3151.685344  	0.054314 
3153.614160  	0.054708 
3155.542976  	0.054801 
3157.471792  	0.054820 
3159.400608  	0.055289 
3161.329424  	0.055777 
3163.258240  	0.056224 
3165.187056  	0.056456 
3167.115872  	0.056499 
3169.044688  	0.056536 
3170.973504  	0.056530 
3172.902320  	0.056664 
3174.831136  	0.057090 
3176.759952  	0.057410 
3178.688768  	0.057590 
3180.617584  	0.057623 
3182.546400  	0.057475 
3184.475216  	0.057712 
3186.404032  	0.057980 
3188.332848  	0.058025 
3190.261664  	0.058177 
3192.190480  	0.058218 
3194.119296  	0.058045 
3196.048112  	0.058020 
3197.976928  	0.058257 
3199.905744  	0.058260 
3201.834560  	0.058224 
3203.763376  	0.058168 
3205.692192  	0.058243 
3207.621008  	0.058119 
3209.549824  	0.057905 
3211.478640  	0.057740 
3213.407456  	0.057684 
3215.336272  	0.057799 
3217.265088  	0.057659 
3219.193904  	0.057322 
3221.122720  	0.056978 
3223.051536  	0.056800 
3224.980352  	0.056734 
3226.909168  	0.056578 
3228.837984  	0.056351 
3230.766800  	0.056382 
3232.695616  	0.056409 
3234.624432  	0.056354 
3236.553248  	0.056273 
3238.482064  	0.056197 
3240.410880  	0.056097 
3242.339696  	0.055965 
3244.268512  	0.056090 
3246.197328  	0.056194 
3248.126144  	0.055927 
3250.054960  	0.055828 
3251.983776  	0.056004 
3253.912592  	0.056170 
3255.841408  	0.056153 
3257.770224  	0.056297 
3259.699040  	0.056510 
3261.627856  	0.056666 
3263.556672  	0.056787 
3265.485488  	0.056742 
3267.414304  	0.056899 
3269.343120  	0.057020 
3271.271936  	0.057134 
3273.200752  	0.057318 
3275.129568  	0.057393 
3277.058384  	0.057372 
3278.987200  	0.057479 
3280.916016  	0.057618 
3282.844832  	0.057847 
3284.773648  	0.057999 
3286.702464  	0.058080 
3288.631280  	0.058345 
3290.560096  	0.058487 
3292.488912  	0.058640 
3294.417728  	0.058796 
3296.346544  	0.059044 
3298.275360  	0.059306 
3300.204176  	0.059530 
3302.132992  	0.059624 
3304.061808  	0.059736 
3305.990624  	0.059992 
3307.919440  	0.060137 
3309.848256  	0.060202 
3311.777072  	0.060210 
3313.705888  	0.060411 
3315.634704  	0.060836 
3317.563520  	0.061224 
3319.492336  	0.061360 
3321.421152  	0.061307 
3323.349968  	0.061340 
3325.278784  	0.061668 
3327.207600  	0.061754 
3329.136416  	0.061823 
3331.065232  	0.061782 
3332.994048  	0.061798 
3334.922864  	0.061907 
3336.851680  	0.061941 
3338.780496  	0.061853 
3340.709312  	0.061758 
3342.638128  	0.061687 
3344.566944  	0.061577 
3346.495760  	0.061457 
3348.424576  	0.061182 
3350.353392  	0.061078 
3352.282208  	0.060882 
3354.211024  	0.060637 
3356.139840  	0.060616 
3358.068656  	0.060422 
3359.997472  	0.060092 
3361.926288  	0.059695 
3363.855104  	0.059298 
3365.783920  	0.059244 
3367.712736  	0.059206 
3369.641552  	0.058752 
3371.570368  	0.058261 
3373.499184  	0.057962 
3375.428000  	0.057774 
3377.356816  	0.057522 
3379.285632  	0.057415 
3381.214448  	0.057263 
3383.143264  	0.056952 
3385.072080  	0.056786 
3387.000896  	0.056500 
3388.929712  	0.056089 
3390.858528  	0.055761 
3392.787344  	0.055696 
3394.716160  	0.055298 
3396.644976  	0.054987 
3398.573792  	0.054788 
3400.502608  	0.054274 
3402.431424  	0.053848 
3404.360240  	0.053497 
3406.289056  	0.053112 
3408.217872  	0.052799 
3410.146688  	0.052513 
3412.075504  	0.052466 
3414.004320  	0.052354 
3415.933136  	0.051855 
3417.861952  	0.051397 
3419.790768  	0.051303 
3421.719584  	0.051312 
3423.648400  	0.050765 
3425.577216  	0.050274 
3427.506032  	0.049956 
3429.434848  	0.049473 
3431.363664  	0.049160 
3433.292480  	0.048885 
3435.221296  	0.048694 
3437.150112  	0.048387 
3439.078928  	0.048066 
3441.007744  	0.047783 
3442.936560  	0.047538 
3444.865376  	0.047002 
3446.794192  	0.046649 
3448.723008  	0.046445 
3450.651824  	0.045825 
3452.580640  	0.045193 
3454.509456  	0.044808 
3456.438272  	0.044457 
3458.367088  	0.044094 
3460.295904  	0.043946 
3462.224720  	0.043533 
3464.153536  	0.042925 
3466.082352  	0.042546 
3468.011168  	0.042337 
3469.939984  	0.041844 
3471.868800  	0.041373 
3473.797616  	0.040936 
3475.726432  	0.040341 
3477.655248  	0.039691 
3479.584064  	0.039561 
3481.512880  	0.039475 
3483.441696  	0.038767 
3485.370512  	0.037795 
3487.299328  	0.037438 
3489.228144  	0.037245 
3491.156960  	0.036678 
3493.085776  	0.036188 
3495.014592  	0.035823 
3496.943408  	0.035486 
3498.872224  	0.034938 
3500.801040  	0.034800 
3502.729856  	0.034805 
3504.658672  	0.034287 
3506.587488  	0.033159 
3508.516304  	0.033006 
3510.445120  	0.033205 
3512.373936  	0.032684 
3514.302752  	0.032181 
3516.231568  	0.031716 
3518.160384  	0.031259 
3520.089200  	0.030991 
3522.018016  	0.031032 
3523.946832  	0.031470 
3525.875648  	0.031058 
3527.804464  	0.030390 
3529.733280  	0.029945 
3531.662096  	0.029366 
3533.590912  	0.028594 
3535.519728  	0.028477 
3537.448544  	0.028490 
3539.377360  	0.027834 
3541.306176  	0.027274 
3543.234992  	0.027241 
3545.163808  	0.027967 
3547.092624  	0.028003 
3549.021440  	0.026594 
3550.950256  	0.025538 
3552.879072  	0.025658 
3554.807888  	0.025378 
3556.736704  	0.024726 
3558.665520  	0.024536 
3560.594336  	0.024537 
3562.523152  	0.023874 
3564.451968  	0.023853 
3566.380784  	0.024952 
3568.309600  	0.025344 
3570.238416  	0.023524 
3572.167232  	0.021939 
3574.096048  	0.021339 
3576.024864  	0.020993 
3577.953680  	0.020646 
3579.882496  	0.020509 
3581.811312  	0.020200 
3583.740128  	0.019505 
3585.668944  	0.019410 
3587.597760  	0.020743 
3589.526576  	0.020166 
3591.455392  	0.017867 
3593.384208  	0.017237 
3595.313024  	0.017300 
3597.241840  	0.016629 
3599.170656  	0.015698 
3601.099472  	0.015429 
3603.028288  	0.015019 
3604.957104  	0.013968 
3606.885920  	0.013691 
3608.814736  	0.014536 
3610.743552  	0.013570 
3612.672368  	0.012913 
3614.601184  	0.012777 
3616.530000  	0.011309 
3618.458816  	0.011135 
3620.387632  	0.011487 
3622.316448  	0.009956 
3624.245264  	0.008504 
3626.174080  	0.007276 
3628.102896  	0.007632 
3630.031712  	0.010004 
3631.960528  	0.008208 
3633.889344  	0.006818 
3635.818160  	0.005842 
3637.746976  	0.004969 
3639.675792  	0.004526 
3641.604608  	0.003950 
3643.533424  	0.002927 
3645.462240  	0.001153 
3647.391056  	0.000899 
3649.319872  	0.001603 
3651.248688  	0.002559 
3653.177504  	0.000561 
3655.106320  	-0.001515 
3657.035136  	-0.001087 
3658.963952  	-0.001718 
3660.892768  	-0.002824 
3662.821584  	-0.003504 
3664.750400  	-0.003954 
3666.679216  	-0.004914 
3668.608032  	-0.005568 
3670.536848  	-0.003767 
3672.465664  	-0.004552 
3674.394480  	-0.006824 
3676.323296  	-0.004090 
3678.252112  	-0.003063 
3680.180928  	-0.003167 
3682.109744  	-0.003914 
3684.038560  	-0.004704 
3685.967376  	-0.005992 
3687.896192  	-0.006569 
3689.825008  	-0.004784 
3691.753824  	-0.003531 
3693.682640  	-0.003596 
3695.611456  	-0.003920 
3697.540272  	-0.003571 
3699.469088  	-0.003624 
3701.397904  	-0.002525 
3703.326720  	-0.001416 
3705.255536  	-0.001902 
3707.184352  	-0.002756 
3709.113168  	-0.002965 
3711.041984  	-0.001509 
3712.970800  	0.000737 
3714.899616  	0.000742 
3716.828432  	-0.000546 
3718.757248  	-0.001113 
3720.686064  	-0.001191 
3722.614880  	-0.000397 
3724.543696  	0.000225 
3726.472512  	0.000704 
3728.401328  	-0.000444 
3730.330144  	-0.002731 
3732.258960  	-0.002715 
3734.187776  	-0.000173 
3736.116592  	0.002805 
3738.045408  	0.001576 
3739.974224  	-0.000209 
3741.903040  	-0.001716 
3743.831856  	-0.001017 
3745.760672  	0.001900 
3747.689488  	-0.001224 
3749.618304  	-0.002282 
3751.547120  	-0.000045 
3753.475936  	0.001714 
3755.404752  	0.000253 
3757.333568  	-0.000436 
3759.262384  	0.000117 
3761.191200  	0.000802 
3763.120016  	-0.000132 
3765.048832  	-0.000210 
3766.977648  	0.000085 
3768.906464  	-0.000341 
3770.835280  	0.000672 
3772.764096  	0.000633 
3774.692912  	-0.000025 
3776.621728  	-0.000786 
3778.550544  	-0.000852 
3780.479360  	0.000195 
3782.408176  	-0.000301 
3784.336992  	-0.000438 
3786.265808  	0.000000 
3788.194624  	-0.000018 
3790.123440  	-0.000188 
3792.052256  	-0.000286 
3793.981072  	-0.000823 
3795.909888  	-0.000745 
3797.838704  	-0.000355 
3799.767520  	-0.001849 
3801.696336  	-0.000307 
3803.625152  	0.000376 
3805.553968  	-0.001507 
3807.482784  	-0.000076 
3809.411600  	0.000503 
3811.340416  	-0.000185 
3813.269232  	-0.001384 
3815.198048  	-0.001981 
3817.126864  	-0.000426 
3819.055680  	-0.001838 
3820.984496  	-0.000919 
3822.913312  	0.001154 
3824.842128  	-0.000366 
3826.770944  	-0.000435 
3828.699760  	-0.000534 
3830.628576  	-0.001326 
3832.557392  	-0.000927 
3834.486208  	-0.001432 
3836.415024  	-0.002077 
3838.343840  	-0.000733 
3840.272656  	0.000326 
3842.201472  	0.000046 
3844.130288  	0.000181 
3846.059104  	0.000074 
3847.987920  	-0.000869 
3849.916736  	-0.002075 
3851.845552  	-0.002962 
3853.774368  	0.000929 
3855.703184  	0.002314 
3857.632000  	0.000699 
3859.560816  	-0.000666 
3861.489632  	-0.001029 
3863.418448  	-0.000604 
3865.347264  	0.000516 
3867.276080  	-0.000470 
3869.204896  	-0.000459 
3871.133712  	0.001891 
3873.062528  	0.000638 
3874.991344  	0.000889 
3876.920160  	-0.000173 
3878.848976  	-0.000913 
3880.777792  	0.000715 
3882.706608  	0.000716 
3884.635424  	0.000016 
3886.564240  	0.001385 
3888.493056  	-0.000068 
3890.421872  	-0.000429 
3892.350688  	0.001144 
3894.279504  	0.000638 
3896.208320  	-0.000478 
3898.137136  	-0.000409 
3900.065952  	0.000697 
3901.994768  	0.001269 
3903.923584  	0.001904 
3905.852400  	0.001876 
3907.781216  	0.000605 
3909.710032  	-0.000208 
3911.638848  	-0.000373 
3913.567664  	-0.000424 
3915.496480  	-0.000039 
3917.425296  	0.001177 
3919.354112  	0.001221 
3921.282928  	0.000668 
3923.211744  	0.000314 
3925.140560  	0.000776 
3927.069376  	0.000201 
3928.998192  	-0.000185 
3930.927008  	0.000808 
3932.855824  	0.001615 
3934.784640  	0.000758 
3936.713456  	0.000125 
3938.642272  	0.000086 
3940.571088  	-0.000128 
3942.499904  	0.000879 
3944.428720  	0.001164 
3946.357536  	0.000441 
3948.286352  	0.000842 
3950.215168  	0.000729 
3952.143984  	0.000140 
3954.072800  	-0.000133 
3956.001616  	0.000042 
3957.930432  	0.000240 
3959.859248  	0.000277 
3961.788064  	0.000383 
3963.716880  	0.000309 
3965.645696  	0.000004 
3967.574512  	0.000182 
3969.503328  	0.000310 
3971.432144  	0.000138 
3973.360960  	0.000158 
3975.289776  	0.000425 
3977.218592  	0.000357 
3979.147408  	0.000155 
3981.076224  	0.000010 
3983.005040  	-0.000014 
3984.933856  	-0.000094 
3986.862672  	0.000068 
3988.791488  	0.000100 
3990.720304  	0.000179 
3992.649120  	0.000116 
3994.577936  	-0.000017 
3996.506752  	-0.000126 
3998.435568  	0.000051 
4000.364384  	0.000103 