##TITLE=No Description
##DATA TYPE=INFRARED SPECTRUM
##XUNITS=1/CM
##YUNITS=Abs
399.264912  	0.583721 
401.193728  	0.584860 
403.122544  	0.575305 
405.051360  	0.547524 
406.980176  	0.551819 
408.908992  	0.549802 
410.837808  	0.537997 
412.766624  	0.531915 
414.695440  	0.543203 
416.624256  	0.535671 
418.553072  	0.524686 
420.481888  	0.522714 
422.410704  	0.523675 
424.339520  	0.521956 
426.268336  	0.523853 
428.197152  	0.513678 
430.125968  	0.508770 
432.054784  	0.510378 
433.983600  	0.514877 
435.912416  	0.505823 
437.841232  	0.504483 
439.770048  	0.505367 
441.698864  	0.503164 
443.627680  	0.498321 
445.556496  	0.498523 
447.485312  	0.493439 
449.414128  	0.495025 
451.342944  	0.496275 
453.271760  	0.490584 
455.200576  	0.481857 
457.129392  	0.484897 
459.058208  	0.486692 
460.987024  	0.492250 
462.915840  	0.491702 
464.844656  	0.492474 
466.773472  	0.489072 
468.702288  	0.489759 
470.631104  	0.488427 
472.559920  	0.486909 
474.488736  	0.483624 
476.417552  	0.487670 
478.346368  	0.485187 
480.275184  	0.481075 
482.204000  	0.477678 
484.132816  	0.484176 
486.061632  	0.482738 
487.990448  	0.480313 
489.919264  	0.477164 
491.848080  	0.475641 
493.776896  	0.477381 
495.705712  	0.480678 
497.634528  	0.478851 
499.563344  	0.478458 
501.492160  	0.476698 
503.420976  	0.477165 
505.349792  	0.473600 
507.278608  	0.471521 
509.207424  	0.472120 
511.136240  	0.473772 
513.065056  	0.474327 
514.993872  	0.476372 
516.922688  	0.474725 
518.851504  	0.476252 
520.780320  	0.475398 
522.709136  	0.475116 
524.637952  	0.472947 
526.566768  	0.470569 
528.495584  	0.468852 
530.424400  	0.468375 
532.353216  	0.464909 
534.282032  	0.459730 
536.210848  	0.453174 
538.139664  	0.449016 
540.068480  	0.445326 
541.997296  	0.442703 
543.926112  	0.439377 
545.854928  	0.437710 
547.783744  	0.433723 
549.712560  	0.429926 
551.641376  	0.425940 
553.570192  	0.422709 
555.499008  	0.418794 
557.427824  	0.415868 
559.356640  	0.412381 
561.285456  	0.409672 
563.214272  	0.406050 
565.143088  	0.402634 
567.071904  	0.398365 
569.000720  	0.394587 
570.929536  	0.390736 
572.858352  	0.388659 
574.787168  	0.385992 
576.715984  	0.383218 
578.644800  	0.379297 
580.573616  	0.375752 
582.502432  	0.371380 
584.431248  	0.368649 
586.360064  	0.366429 
588.288880  	0.364496 
590.217696  	0.362245 
592.146512  	0.360656 
594.075328  	0.358316 
596.004144  	0.355827 
597.932960  	0.353918 
599.861776  	0.353949 
601.790592  	0.353035 
603.719408  	0.350998 
605.648224  	0.348262 
607.577040  	0.347659 
609.505856  	0.347878 
611.434672  	0.347304 
613.363488  	0.345218 
615.292304  	0.343401 
617.221120  	0.341294 
619.149936  	0.339736 
621.078752  	0.337366 
623.007568  	0.335132 
624.936384  	0.333670 
626.865200  	0.333254 
628.794016  	0.332041 
630.722832  	0.330772 
632.651648  	0.329392 
634.580464  	0.329171 
636.509280  	0.329525 
638.438096  	0.329293 
640.366912  	0.328507 
642.295728  	0.327063 
644.224544  	0.324640 
646.153360  	0.321877 
648.082176  	0.318055 
650.010992  	0.314931 
651.939808  	0.311796 
653.868624  	0.308518 
655.797440  	0.304727 
657.726256  	0.301490 
659.655072  	0.297847 
661.583888  	0.294381 
663.512704  	0.291032 
665.441520  	0.287678 
667.370336  	0.281797 
669.299152  	0.278519 
671.227968  	0.278189 
673.156784  	0.275553 
675.085600  	0.273207 
677.014416  	0.271853 
678.943232  	0.270370 
680.872048  	0.268519 
682.800864  	0.266768 
684.729680  	0.265550 
686.658496  	0.263878 
688.587312  	0.262285 
690.516128  	0.260380 
692.444944  	0.259043 
694.373760  	0.257780 
696.302576  	0.256597 
698.231392  	0.254525 
700.160208  	0.251958 
702.089024  	0.249923 
704.017840  	0.248295 
705.946656  	0.245712 
707.875472  	0.243038 
709.804288  	0.240862 
711.733104  	0.239499 
713.661920  	0.238219 
715.590736  	0.237734 
717.519552  	0.237685 
719.448368  	0.238030 
721.377184  	0.238839 
723.306000  	0.239452 
725.234816  	0.239459 
727.163632  	0.238499 
729.092448  	0.236007 
731.021264  	0.233430 
732.950080  	0.230792 
734.878896  	0.227847 
736.807712  	0.225444 
738.736528  	0.223748 
740.665344  	0.222230 
742.594160  	0.220929 
744.522976  	0.219840 
746.451792  	0.218701 
748.380608  	0.217688 
750.309424  	0.217099 
752.238240  	0.216316 
754.167056  	0.215876 
756.095872  	0.214964 
758.024688  	0.214252 
759.953504  	0.213899 
761.882320  	0.213823 
763.811136  	0.213724 
765.739952  	0.213336 
767.668768  	0.212129 
769.597584  	0.211003 
771.526400  	0.210998 
773.455216  	0.212674 
775.384032  	0.215300 
777.312848  	0.218761 
779.241664  	0.222439 
781.170480  	0.223739 
783.099296  	0.221307 
785.028112  	0.216360 
786.956928  	0.210342 
788.885744  	0.205454 
790.814560  	0.201826 
792.743376  	0.199635 
794.672192  	0.197943 
796.601008  	0.197143 
798.529824  	0.195564 
800.458640  	0.192558 
802.387456  	0.189348 
804.316272  	0.187782 
806.245088  	0.187172 
808.173904  	0.186753 
810.102720  	0.186665 
812.031536  	0.186595 
813.960352  	0.186591 
815.889168  	0.186894 
817.817984  	0.186955 
819.746800  	0.186735 
821.675616  	0.186235 
823.604432  	0.185715 
825.533248  	0.184624 
827.462064  	0.183339 
829.390880  	0.182308 
831.319696  	0.181324 
833.248512  	0.179980 
835.177328  	0.178095 
837.106144  	0.175599 
839.034960  	0.172770 
840.963776  	0.169891 
842.892592  	0.167170 
844.821408  	0.164283 
846.750224  	0.161518 
848.679040  	0.159280 
850.607856  	0.157129 
852.536672  	0.155505 
854.465488  	0.153783 
856.394304  	0.151892 
858.323120  	0.150142 
860.251936  	0.148172 
862.180752  	0.145908 
864.109568  	0.143639 
866.038384  	0.141535 
867.967200  	0.139956 
869.896016  	0.138703 
871.824832  	0.137525 
873.753648  	0.136946 
875.682464  	0.137134 
877.611280  	0.136984 
879.540096  	0.136836 
881.468912  	0.137876 
883.397728  	0.138220 
885.326544  	0.138460 
887.255360  	0.138467 
889.184176  	0.137582 
891.112992  	0.135839 
893.041808  	0.134320 
894.970624  	0.132538 
896.899440  	0.130008 
898.828256  	0.126919 
900.757072  	0.124058 
902.685888  	0.121720 
904.614704  	0.120489 
906.543520  	0.120690 
908.472336  	0.122176 
910.401152  	0.124729 
912.329968  	0.127789 
914.258784  	0.131031 
916.187600  	0.133988 
918.116416  	0.135944 
920.045232  	0.136770 
921.974048  	0.136604 
923.902864  	0.135876 
925.831680  	0.134775 
927.760496  	0.133725 
929.689312  	0.132915 
931.618128  	0.132964 
933.546944  	0.133337 
935.475760  	0.133576 
937.404576  	0.133664 
939.333392  	0.134380 
941.262208  	0.135790 
943.191024  	0.138088 
945.119840  	0.141764 
947.048656  	0.146330 
948.977472  	0.151863 
950.906288  	0.158417 
952.835104  	0.165608 
954.763920  	0.172568 
956.692736  	0.178839 
958.621552  	0.184154 
960.550368  	0.187618 
962.479184  	0.189020 
964.408000  	0.187511 
966.336816  	0.183588 
968.265632  	0.177159 
970.194448  	0.169376 
972.123264  	0.160598 
974.052080  	0.151040 
975.980896  	0.141591 
977.909712  	0.133092 
979.838528  	0.125741 
981.767344  	0.119709 
983.696160  	0.115561 
985.624976  	0.113288 
987.553792  	0.113189 
989.482608  	0.115061 
991.411424  	0.118566 
993.340240  	0.123501 
995.269056  	0.129547 
997.197872  	0.135938 
999.126688  	0.141862 
1001.055504  	0.147899 
1002.984320  	0.153701 
1004.913136  	0.159035 
1006.841952  	0.163589 
1008.770768  	0.167420 
1010.699584  	0.169985 
1012.628400  	0.171346 
1014.557216  	0.171675 
1016.486032  	0.171813 
1018.414848  	0.171848 
1020.343664  	0.172058 
1022.272480  	0.172014 
1024.201296  	0.171030 
1026.130112  	0.167459 
1028.058928  	0.166161 
1029.987744  	0.169405 
1031.916560  	0.170876 
1033.845376  	0.170827 
1035.774192  	0.169988 
1037.703008  	0.170037 
1039.631824  	0.173686 
1041.560640  	0.178734 
1043.489456  	0.185488 
1045.418272  	0.194421 
1047.347088  	0.205672 
1049.275904  	0.217535 
1051.204720  	0.229080 
1053.133536  	0.239225 
1055.062352  	0.246818 
1056.991168  	0.250640 
1058.919984  	0.254961 
1060.848800  	0.257998 
1062.777616  	0.256456 
1064.706432  	0.249559 
1066.635248  	0.243985 
1068.564064  	0.243725 
1070.492880  	0.240224 
1072.421696  	0.233279 
1074.350512  	0.226776 
1076.279328  	0.222145 
1078.208144  	0.219885 
1080.136960  	0.219465 
1082.065776  	0.219801 
1083.994592  	0.220067 
1085.923408  	0.220176 
1087.852224  	0.218822 
1089.781040  	0.217491 
1091.709856  	0.215637 
1093.638672  	0.211125 
1095.567488  	0.204055 
1097.496304  	0.196313 
1099.425120  	0.187964 
1101.353936  	0.178977 
1103.282752  	0.169622 
1105.211568  	0.160615 
1107.140384  	0.151945 
1109.069200  	0.143315 
1110.998016  	0.135433 
1112.926832  	0.127861 
1114.855648  	0.120492 
1116.784464  	0.113498 
1118.713280  	0.107308 
1120.642096  	0.101555 
1122.570912  	0.095570 
1124.499728  	0.089947 
1126.428544  	0.084949 
1128.357360  	0.080257 
1130.286176  	0.075942 
1132.214992  	0.072274 
1134.143808  	0.069149 
1136.072624  	0.066315 
1138.001440  	0.063598 
1139.930256  	0.060939 
1141.859072  	0.058610 
1143.787888  	0.056209 
1145.716704  	0.054231 
1147.645520  	0.052687 
1149.574336  	0.051422 
1151.503152  	0.050411 
1153.431968  	0.050103 
1155.360784  	0.050161 
1157.289600  	0.050665 
1159.218416  	0.051587 
1161.147232  	0.052957 
1163.076048  	0.054246 
1165.004864  	0.055896 
1166.933680  	0.057518 
1168.862496  	0.059604 
1170.791312  	0.061957 
1172.720128  	0.064255 
1174.648944  	0.066419 
1176.577760  	0.068768 
1178.506576  	0.071082 
1180.435392  	0.073395 
1182.364208  	0.075503 
1184.293024  	0.078015 
1186.221840  	0.080757 
1188.150656  	0.083690 
1190.079472  	0.087035 
1192.008288  	0.091010 
1193.937104  	0.095538 
1195.865920  	0.100765 
1197.794736  	0.106105 
1199.723552  	0.112182 
1201.652368  	0.118572 
1203.581184  	0.124987 
1205.510000  	0.131221 
1207.438816  	0.137573 
1209.367632  	0.143737 
1211.296448  	0.149491 
1213.225264  	0.154585 
1215.154080  	0.158603 
1217.082896  	0.161876 
1219.011712  	0.164371 
1220.940528  	0.166398 
1222.869344  	0.168051 
1224.798160  	0.169408 
1226.726976  	0.170110 
1228.655792  	0.170560 
1230.584608  	0.170561 
1232.513424  	0.170021 
1234.442240  	0.168951 
1236.371056  	0.167135 
1238.299872  	0.164024 
1240.228688  	0.158081 
1242.157504  	0.152262 
1244.086320  	0.147935 
1246.015136  	0.141706 
1247.943952  	0.134522 
1249.872768  	0.127462 
1251.801584  	0.121523 
1253.730400  	0.115695 
1255.659216  	0.110062 
1257.588032  	0.104513 
1259.516848  	0.099318 
1261.445664  	0.094588 
1263.374480  	0.090468 
1265.303296  	0.086894 
1267.232112  	0.084112 
1269.160928  	0.082157 
1271.089744  	0.080717 
1273.018560  	0.079878 
1274.947376  	0.079600 
1276.876192  	0.079427 
1278.805008  	0.078863 
1280.733824  	0.077417 
1282.662640  	0.074824 
1284.591456  	0.071530 
1286.520272  	0.068331 
1288.449088  	0.065755 
1290.377904  	0.063541 
1292.306720  	0.061804 
1294.235536  	0.059809 
1296.164352  	0.057205 
1298.093168  	0.054054 
1300.021984  	0.050758 
1301.950800  	0.047674 
1303.879616  	0.045156 
1305.808432  	0.042980 
1307.737248  	0.041303 
1309.666064  	0.039778 
1311.594880  	0.039127 
1313.523696  	0.038882 
1315.452512  	0.038658 
1317.381328  	0.039077 
1319.310144  	0.039639 
1321.238960  	0.039966 
1323.167776  	0.040536 
1325.096592  	0.041021 
1327.025408  	0.041181 
1328.954224  	0.040859 
1330.883040  	0.040113 
1332.811856  	0.039131 
1334.740672  	0.038555 
1336.669488  	0.038423 
1338.598304  	0.038816 
1340.527120  	0.038030 
1342.455936  	0.036167 
1344.384752  	0.035598 
1346.313568  	0.036133 
1348.242384  	0.037149 
1350.171200  	0.038601 
1352.100016  	0.040147 
1354.028832  	0.041859 
1355.957648  	0.043689 
1357.886464  	0.045355 
1359.815280  	0.047052 
1361.744096  	0.049245 
1363.672912  	0.050292 
1365.601728  	0.049693 
1367.530544  	0.049566 
1369.459360  	0.049147 
1371.388176  	0.047820 
1373.316992  	0.046590 
1375.245808  	0.044205 
1377.174624  	0.041344 
1379.103440  	0.038890 
1381.032256  	0.036484 
1382.961072  	0.034766 
1384.889888  	0.034501 
1386.818704  	0.035325 
1388.747520  	0.034602 
1390.676336  	0.031878 
1392.605152  	0.028047 
1394.533968  	0.027443 
1396.462784  	0.031389 
1398.391600  	0.032600 
1400.320416  	0.031867 
1402.249232  	0.030807 
1404.178048  	0.031426 
1406.106864  	0.032322 
1408.035680  	0.033670 
1409.964496  	0.036123 
1411.893312  	0.039180 
1413.822128  	0.041973 
1415.750944  	0.045419 
1417.679760  	0.048232 
1419.608576  	0.049028 
1421.537392  	0.048205 
1423.466208  	0.048044 
1425.395024  	0.046929 
1427.323840  	0.045334 
1429.252656  	0.044246 
1431.181472  	0.043241 
1433.110288  	0.042681 
1435.039104  	0.043108 
1436.967920  	0.044103 
1438.896736  	0.043834 
1440.825552  	0.043689 
1442.754368  	0.044150 
1444.683184  	0.044227 
1446.612000  	0.044546 
1448.540816  	0.044408 
1450.469632  	0.044030 
1452.398448  	0.044293 
1454.327264  	0.045021 
1456.256080  	0.046909 
1458.184896  	0.048146 
1460.113712  	0.047218 
1462.042528  	0.046751 
1463.971344  	0.047370 
1465.900160  	0.049275 
1467.828976  	0.050906 
1469.757792  	0.053157 
1471.686608  	0.057035 
1473.615424  	0.062255 
1475.544240  	0.065168 
1477.473056  	0.067106 
1479.401872  	0.067790 
1481.330688  	0.068764 
1483.259504  	0.068843 
1485.188320  	0.068614 
1487.117136  	0.067976 
1489.045952  	0.067244 
1490.974768  	0.064092 
1492.903584  	0.059985 
1494.832400  	0.056860 
1496.761216  	0.053832 
1498.690032  	0.050488 
1500.618848  	0.048058 
1502.547664  	0.045576 
1504.476480  	0.043289 
1506.405296  	0.044015 
1508.334112  	0.045289 
1510.262928  	0.042615 
1512.191744  	0.040260 
1514.120560  	0.039124 
1516.049376  	0.039723 
1517.978192  	0.039910 
1519.907008  	0.040484 
1521.835824  	0.042834 
1523.764640  	0.044654 
1525.693456  	0.047175 
1527.622272  	0.049229 
1529.551088  	0.049733 
1531.479904  	0.050099 
1533.408720  	0.050115 
1535.337536  	0.048567 
1537.266352  	0.046140 
1539.195168  	0.043424 
1541.123984  	0.042004 
1543.052800  	0.042211 
1544.981616  	0.041223 
1546.910432  	0.038906 
1548.839248  	0.038478 
1550.768064  	0.039007 
1552.696880  	0.038286 
1554.625696  	0.039017 
1556.554512  	0.038844 
1558.483328  	0.040422 
1560.412144  	0.044428 
1562.340960  	0.045671 
1564.269776  	0.047467 
1566.198592  	0.051007 
1568.127408  	0.054058 
1570.056224  	0.059181 
1571.985040  	0.062836 
1573.913856  	0.064711 
1575.842672  	0.066423 
1577.771488  	0.068827 
1579.700304  	0.068639 
1581.629120  	0.068513 
1583.557936  	0.068805 
1585.486752  	0.070225 
1587.415568  	0.072568 
1589.344384  	0.076526 
1591.273200  	0.081051 
1593.202016  	0.086339 
1595.130832  	0.091427 
1597.059648  	0.096328 
1598.988464  	0.099982 
1600.917280  	0.103087 
1602.846096  	0.104910 
1604.774912  	0.105842 
1606.703728  	0.105533 
1608.632544  	0.105148 
1610.561360  	0.104196 
1612.490176  	0.103666 
1614.418992  	0.102907 
1616.347808  	0.103993 
1618.276624  	0.107139 
1620.205440  	0.110500 
1622.134256  	0.114217 
1624.063072  	0.120789 
1625.991888  	0.126403 
1627.920704  	0.133092 
1629.849520  	0.140228 
1631.778336  	0.146415 
1633.707152  	0.151234 
1635.635968  	0.158745 
1637.564784  	0.166020 
1639.493600  	0.169815 
1641.422416  	0.172896 
1643.351232  	0.175020 
1645.280048  	0.176003 
1647.208864  	0.178159 
1649.137680  	0.178019 
1651.066496  	0.175952 
1652.995312  	0.174535 
1654.924128  	0.175574 
1656.852944  	0.173102 
1658.781760  	0.171082 
1660.710576  	0.169266 
1662.639392  	0.167707 
1664.568208  	0.166029 
1666.497024  	0.164338 
1668.425840  	0.162782 
1670.354656  	0.161917 
1672.283472  	0.160780 
1674.212288  	0.159607 
1676.141104  	0.159616 
1678.069920  	0.159852 
1679.998736  	0.160590 
1681.927552  	0.160424 
1683.856368  	0.160166 
1685.785184  	0.160982 
1687.714000  	0.160102 
1689.642816  	0.158632 
1691.571632  	0.156162 
1693.500448  	0.153635 
1695.429264  	0.150719 
1697.358080  	0.148095 
1699.286896  	0.144362 
1701.215712  	0.140072 
1703.144528  	0.136270 
1705.073344  	0.131694 
1707.002160  	0.126430 
1708.930976  	0.121593 
1710.859792  	0.116395 
1712.788608  	0.110972 
1714.717424  	0.105578 
1716.646240  	0.099296 
1718.575056  	0.091997 
1720.503872  	0.084940 
1722.432688  	0.079104 
1724.361504  	0.072786 
1726.290320  	0.066898 
1728.219136  	0.061739 
1730.147952  	0.057344 
1732.076768  	0.052692 
1734.005584  	0.047913 
1735.934400  	0.042238 
1737.863216  	0.038527 
1739.792032  	0.034325 
1741.720848  	0.031509 
1743.649664  	0.029150 
1745.578480  	0.026320 
1747.507296  	0.023837 
1749.436112  	0.022620 
1751.364928  	0.021069 
1753.293744  	0.018937 
1755.222560  	0.017285 
1757.151376  	0.016880 
1759.080192  	0.015502 
1761.009008  	0.014955 
1762.937824  	0.014319 
1764.866640  	0.013599 
1766.795456  	0.013386 
1768.724272  	0.013623 
1770.653088  	0.012130 
1772.581904  	0.011868 
1774.510720  	0.012118 
1776.439536  	0.012041 
1778.368352  	0.011575 
1780.297168  	0.011833 
1782.225984  	0.011296 
1784.154800  	0.011114 
1786.083616  	0.010942 
1788.012432  	0.010636 
1789.941248  	0.010531 
1791.870064  	0.011007 
1793.798880  	0.010687 
1795.727696  	0.010770 
1797.656512  	0.010280 
1799.585328  	0.010152 
1801.514144  	0.010267 
1803.442960  	0.009686 
1805.371776  	0.008934 
1807.300592  	0.009004 
1809.229408  	0.008826 
1811.158224  	0.009104 
1813.087040  	0.008657 
1815.015856  	0.008167 
1816.944672  	0.008192 
1818.873488  	0.008471 
1820.802304  	0.008543 
1822.731120  	0.008829 
1824.659936  	0.009119 
1826.588752  	0.009060 
1828.517568  	0.008515 
1830.446384  	0.009100 
1832.375200  	0.008780 
1834.304016  	0.008575 
1836.232832  	0.008445 
1838.161648  	0.008687 
1840.090464  	0.008380 
1842.019280  	0.008482 
1843.948096  	0.008679 
1845.876912  	0.009062 
1847.805728  	0.008773 
1849.734544  	0.008516 
1851.663360  	0.007914 
1853.592176  	0.007880 
1855.520992  	0.007848 
1857.449808  	0.008595 
1859.378624  	0.008604 
1861.307440  	0.008400 
1863.236256  	0.008056 
1865.165072  	0.008219 
1867.093888  	0.008655 
1869.022704  	0.009592 
1870.951520  	0.008794 
1872.880336  	0.008211 
1874.809152  	0.007724 
1876.737968  	0.007847 
1878.666784  	0.007467 
1880.595600  	0.007434 
1882.524416  	0.007648 
1884.453232  	0.007795 
1886.382048  	0.007538 
1888.310864  	0.007943 
1890.239680  	0.008358 
1892.168496  	0.008239 
1894.097312  	0.007882 
1896.026128  	0.007962 
1897.954944  	0.007261 
1899.883760  	0.006980 
1901.812576  	0.007013 
1903.741392  	0.007373 
1905.670208  	0.007376 
1907.599024  	0.007631 
1909.527840  	0.007205 
1911.456656  	0.006979 
1913.385472  	0.006801 
1915.314288  	0.007501 
1917.243104  	0.008006 
1919.171920  	0.007886 
1921.100736  	0.007632 
1923.029552  	0.008475 
1924.958368  	0.007402 
1926.887184  	0.006951 
1928.816000  	0.006386 
1930.744816  	0.006455 
1932.673632  	0.006438 
1934.602448  	0.006827 
1936.531264  	0.007096 
1938.460080  	0.007373 
1940.388896  	0.007244 
1942.317712  	0.008227 
1944.246528  	0.007800 
1946.175344  	0.007455 
1948.104160  	0.006113 
1950.032976  	0.006156 
1951.961792  	0.006427 
1953.890608  	0.006980 
1955.819424  	0.006461 
1957.748240  	0.007078 
1959.677056  	0.007281 
1961.605872  	0.006954 
1963.534688  	0.005770 
1965.463504  	0.007514 
1967.392320  	0.008076 
1969.321136  	0.007471 
1971.249952  	0.007538 
1973.178768  	0.008300 
1975.107584  	0.006776 
1977.036400  	0.006471 
1978.965216  	0.008228 
1980.894032  	0.008900 
1982.822848  	0.006946 
1984.751664  	0.007399 
1986.680480  	0.007766 
1988.609296  	0.007844 
1990.538112  	0.007562 
1992.466928  	0.008625 
1994.395744  	0.007937 
1996.324560  	0.007492 
1998.253376  	0.006830 
2000.182192  	0.007055 
2002.111008  	0.007455 
2004.039824  	0.007702 
2005.968640  	0.006885 
2007.897456  	0.007663 
2009.826272  	0.006820 
2011.755088  	0.006257 
2013.683904  	0.006915 
2015.612720  	0.008254 
2017.541536  	0.007920 
2019.470352  	0.007301 
2021.399168  	0.006161 
2023.327984  	0.007411 
2025.256800  	0.007143 
2027.185616  	0.006254 
2029.114432  	0.005729 
2031.043248  	0.007319 
2032.972064  	0.007353 
2034.900880  	0.008519 
2036.829696  	0.007711 
2038.758512  	0.006392 
2040.687328  	0.006545 
2042.616144  	0.007045 
2044.544960  	0.006458 
2046.473776  	0.006741 
2048.402592  	0.007407 
2050.331408  	0.008857 
2052.260224  	0.007972 
2054.189040  	0.007077 
2056.117856  	0.006157 
2058.046672  	0.006120 
2059.975488  	0.006184 
2061.904304  	0.007128 
2063.833120  	0.008147 
2065.761936  	0.008283 
2067.690752  	0.007485 
2069.619568  	0.006977 
2071.548384  	0.006060 
2073.477200  	0.006417 
2075.406016  	0.007405 
2077.334832  	0.007497 
2079.263648  	0.006269 
2081.192464  	0.006191 
2083.121280  	0.006905 
2085.050096  	0.007509 
2086.978912  	0.007407 
2088.907728  	0.007107 
2090.836544  	0.006337 
2092.765360  	0.006193 
2094.694176  	0.006168 
2096.622992  	0.006444 
2098.551808  	0.006638 
2100.480624  	0.007045 
2102.409440  	0.006820 
2104.338256  	0.007126 
2106.267072  	0.007010 
2108.195888  	0.007181 
2110.124704  	0.007908 
2112.053520  	0.008235 
2113.982336  	0.007541 
2115.911152  	0.007235 
2117.839968  	0.006739 
2119.768784  	0.006387 
2121.697600  	0.006317 
2123.626416  	0.006052 
2125.555232  	0.005713 
2127.484048  	0.006127 
2129.412864  	0.005492 
2131.341680  	0.004794 
2133.270496  	0.005492 
2135.199312  	0.005947 
2137.128128  	0.005948 
2139.056944  	0.006498 
2140.985760  	0.005580 
2142.914576  	0.006023 
2144.843392  	0.006173 
2146.772208  	0.006447 
2148.701024  	0.006146 
2150.629840  	0.006002 
2152.558656  	0.004258 
2154.487472  	0.003173 
2156.416288  	0.002932 
2158.345104  	0.006517 
2160.273920  	0.009695 
2162.202736  	0.009207 
2164.131552  	0.008168 
2166.060368  	0.008966 
2167.989184  	0.007772 
2169.918000  	0.007026 
2171.846816  	0.006620 
2173.775632  	0.006781 
2175.704448  	0.008077 
2177.633264  	0.009247 
2179.562080  	0.007838 
2181.490896  	0.006956 
2183.419712  	0.007556 
2185.348528  	0.008081 
2187.277344  	0.007673 
2189.206160  	0.008329 
2191.134976  	0.008497 
2193.063792  	0.009484 
2194.992608  	0.009225 
2196.921424  	0.007578 
2198.850240  	0.007863 
2200.779056  	0.008489 
2202.707872  	0.007932 
2204.636688  	0.008249 
2206.565504  	0.008630 
2208.494320  	0.008215 
2210.423136  	0.006592 
2212.351952  	0.006857 
2214.280768  	0.007113 
2216.209584  	0.007160 
2218.138400  	0.007283 
2220.067216  	0.007399 
2221.996032  	0.006960 
2223.924848  	0.006927 
2225.853664  	0.007567 
2227.782480  	0.008414 
2229.711296  	0.008358 
2231.640112  	0.007885 
2233.568928  	0.007088 
2235.497744  	0.006995 
2237.426560  	0.007033 
2239.355376  	0.007511 
2241.284192  	0.007184 
2243.213008  	0.006794 
2245.141824  	0.006884 
2247.070640  	0.006647 
2248.999456  	0.006498 
2250.928272  	0.006816 
2252.857088  	0.006652 
2254.785904  	0.006731 
2256.714720  	0.007397 
2258.643536  	0.007779 
2260.572352  	0.007056 
2262.501168  	0.007144 
2264.429984  	0.007197 
2266.358800  	0.007437 
2268.287616  	0.007762 
2270.216432  	0.007622 
2272.145248  	0.007234 
2274.074064  	0.007602 
2276.002880  	0.007890 
2277.931696  	0.008232 
2279.860512  	0.008273 
2281.789328  	0.008302 
2283.718144  	0.008373 
2285.646960  	0.008881 
2287.575776  	0.009159 
2289.504592  	0.008749 
2291.433408  	0.008325 
2293.362224  	0.008339 
2295.291040  	0.008556 
2297.219856  	0.008795 
2299.148672  	0.008769 
2301.077488  	0.008661 
2303.006304  	0.008662 
2304.935120  	0.008644 
2306.863936  	0.008313 
2308.792752  	0.008252 
2310.721568  	0.008185 
2312.650384  	0.007749 
2314.579200  	0.007039 
2316.508016  	0.006372 
2318.436832  	0.005676 
2320.365648  	0.004852 
2322.294464  	0.004054 
2324.223280  	0.003090 
2326.152096  	0.001204 
2328.080912  	-0.000344 
2330.009728  	-0.001355 
2331.938544  	-0.001934 
2333.867360  	-0.003204 
2335.796176  	-0.004595 
2337.724992  	-0.005267 
2339.653808  	-0.005191 
2341.582624  	-0.005207 
2343.511440  	-0.003953 
2345.440256  	-0.001382 
2347.369072  	0.001900 
2349.297888  	0.002394 
2351.226704  	-0.000424 
2353.155520  	-0.003901 
2355.084336  	-0.006868 
2357.013152  	-0.008894 
2358.941968  	-0.009651 
2360.870784  	-0.010268 
2362.799600  	-0.009799 
2364.728416  	-0.008586 
2366.657232  	-0.006744 
2368.586048  	-0.004528 
2370.514864  	-0.001818 
2372.443680  	0.000728 
2374.372496  	0.003453 
2376.301312  	0.005572 
2378.230128  	0.007275 
2380.158944  	0.008091 
2382.087760  	0.008423 
2384.016576  	0.008580 
2385.945392  	0.008511 
2387.874208  	0.008168 
2389.803024  	0.007894 
2391.731840  	0.007773 
2393.660656  	0.007942 
2395.589472  	0.008182 
2397.518288  	0.008422 
2399.447104  	0.008286 
2401.375920  	0.008027 
2403.304736  	0.007952 
2405.233552  	0.008215 
2407.162368  	0.008383 
2409.091184  	0.008144 
2411.020000  	0.008119 
2412.948816  	0.008449 
2414.877632  	0.008401 
2416.806448  	0.008464 
2418.735264  	0.008625 
2420.664080  	0.008580 
2422.592896  	0.008456 
2424.521712  	0.008416 
2426.450528  	0.008459 
2428.379344  	0.008398 
2430.308160  	0.008466 
2432.236976  	0.008691 
2434.165792  	0.008909 
2436.094608  	0.009295 
2438.023424  	0.009495 
2439.952240  	0.009462 
2441.881056  	0.009465 
2443.809872  	0.009386 
2445.738688  	0.009370 
2447.667504  	0.009499 
2449.596320  	0.009478 
2451.525136  	0.009567 
2453.453952  	0.009552 
2455.382768  	0.009850 
2457.311584  	0.010039 
2459.240400  	0.009873 
2461.169216  	0.009692 
2463.098032  	0.009618 
2465.026848  	0.009682 
2466.955664  	0.009577 
2468.884480  	0.009222 
2470.813296  	0.009417 
2472.742112  	0.009469 
2474.670928  	0.009375 
2476.599744  	0.009483 
2478.528560  	0.009586 
2480.457376  	0.009781 
2482.386192  	0.010058 
2484.315008  	0.010286 
2486.243824  	0.010382 
2488.172640  	0.010102 
2490.101456  	0.010142 
2492.030272  	0.010405 
2493.959088  	0.010239 
2495.887904  	0.010048 
2497.816720  	0.010403 
2499.745536  	0.010547 
2501.674352  	0.010517 
2503.603168  	0.010384 
2505.531984  	0.010379 
2507.460800  	0.010346 
2509.389616  	0.010336 
2511.318432  	0.010208 
2513.247248  	0.010393 
2515.176064  	0.010546 
2517.104880  	0.010835 
2519.033696  	0.011029 
2520.962512  	0.011167 
2522.891328  	0.011380 
2524.820144  	0.011235 
2526.748960  	0.010997 
2528.677776  	0.011152 
2530.606592  	0.011283 
2532.535408  	0.011274 
2534.464224  	0.011299 
2536.393040  	0.011333 
2538.321856  	0.011196 
2540.250672  	0.011350 
2542.179488  	0.011410 
2544.108304  	0.011442 
2546.037120  	0.011432 
2547.965936  	0.011853 
2549.894752  	0.012019 
2551.823568  	0.012150 
2553.752384  	0.012228 
2555.681200  	0.012159 
2557.610016  	0.012103 
2559.538832  	0.012111 
2561.467648  	0.012052 
2563.396464  	0.012379 
2565.325280  	0.012646 
2567.254096  	0.012669 
2569.182912  	0.012618 
2571.111728  	0.012542 
2573.040544  	0.012479 
2574.969360  	0.012644 
2576.898176  	0.012775 
2578.826992  	0.012992 
2580.755808  	0.013009 
2582.684624  	0.012907 
2584.613440  	0.012838 
2586.542256  	0.013152 
2588.471072  	0.013270 
2590.399888  	0.013099 
2592.328704  	0.013096 
2594.257520  	0.013436 
2596.186336  	0.013724 
2598.115152  	0.013634 
2600.043968  	0.013380 
2601.972784  	0.013433 
2603.901600  	0.013718 
2605.830416  	0.013834 
2607.759232  	0.013756 
2609.688048  	0.014091 
2611.616864  	0.014260 
2613.545680  	0.014226 
2615.474496  	0.014233 
2617.403312  	0.014421 
2619.332128  	0.014554 
2621.260944  	0.014549 
2623.189760  	0.014613 
2625.118576  	0.014765 
2627.047392  	0.014812 
2628.976208  	0.015158 
2630.905024  	0.015336 
2632.833840  	0.015450 
2634.762656  	0.015578 
2636.691472  	0.015557 
2638.620288  	0.015588 
2640.549104  	0.015720 
2642.477920  	0.015784 
2644.406736  	0.015852 
2646.335552  	0.016090 
2648.264368  	0.016200 
2650.193184  	0.016297 
2652.122000  	0.016462 
2654.050816  	0.016581 
2655.979632  	0.016552 
2657.908448  	0.016610 
2659.837264  	0.016689 
2661.766080  	0.016636 
2663.694896  	0.016683 
2665.623712  	0.016707 
2667.552528  	0.016701 
2669.481344  	0.016869 
2671.410160  	0.017033 
2673.338976  	0.017093 
2675.267792  	0.017235 
2677.196608  	0.017406 
2679.125424  	0.017554 
2681.054240  	0.017588 
2682.983056  	0.017652 
2684.911872  	0.017829 
2686.840688  	0.017998 
2688.769504  	0.018008 
2690.698320  	0.017993 
2692.627136  	0.018074 
2694.555952  	0.018135 
2696.484768  	0.018134 
2698.413584  	0.018309 
2700.342400  	0.018418 
2702.271216  	0.018515 
2704.200032  	0.018616 
2706.128848  	0.018730 
2708.057664  	0.018841 
2709.986480  	0.018935 
2711.915296  	0.018973 
2713.844112  	0.019019 
2715.772928  	0.019198 
2717.701744  	0.019350 
2719.630560  	0.019271 
2721.559376  	0.019275 
2723.488192  	0.019423 
2725.417008  	0.019700 
2727.345824  	0.019856 
2729.274640  	0.019785 
2731.203456  	0.019772 
2733.132272  	0.019923 
2735.061088  	0.020076 
2736.989904  	0.020105 
2738.918720  	0.020129 
2740.847536  	0.020094 
2742.776352  	0.020135 
2744.705168  	0.020285 
2746.633984  	0.020303 
2748.562800  	0.020465 
2750.491616  	0.020586 
2752.420432  	0.020547 
2754.349248  	0.020567 
2756.278064  	0.020656 
2758.206880  	0.020634 
2760.135696  	0.020818 
2762.064512  	0.020806 
2763.993328  	0.020685 
2765.922144  	0.020764 
2767.850960  	0.020848 
2769.779776  	0.020825 
2771.708592  	0.020825 
2773.637408  	0.020775 
2775.566224  	0.020858 
2777.495040  	0.020892 
2779.423856  	0.020821 
2781.352672  	0.020923 
2783.281488  	0.021019 
2785.210304  	0.021062 
2787.139120  	0.021220 
2789.067936  	0.021296 
2790.996752  	0.021278 
2792.925568  	0.021290 
2794.854384  	0.021387 
2796.783200  	0.021423 
2798.712016  	0.021270 
2800.640832  	0.021272 
2802.569648  	0.021436 
2804.498464  	0.021445 
2806.427280  	0.021415 
2808.356096  	0.021561 
2810.284912  	0.021723 
2812.213728  	0.021561 
2814.142544  	0.021467 
2816.071360  	0.021586 
2818.000176  	0.021476 
2819.928992  	0.021286 
2821.857808  	0.021154 
2823.786624  	0.021098 
2825.715440  	0.021108 
2827.644256  	0.020838 
2829.573072  	0.020672 
2831.501888  	0.020407 
2833.430704  	0.020153 
2835.359520  	0.019861 
2837.288336  	0.019523 
2839.217152  	0.019268 
2841.145968  	0.018947 
2843.074784  	0.018594 
2845.003600  	0.018474 
2846.932416  	0.018495 
2848.861232  	0.018330 
2850.790048  	0.017853 
2852.718864  	0.017139 
2854.647680  	0.016348 
2856.576496  	0.015511 
2858.505312  	0.014577 
2860.434128  	0.013576 
2862.362944  	0.012510 
2864.291760  	0.011438 
2866.220576  	0.010448 
2868.149392  	0.010021 
2870.078208  	0.009882 
2872.007024  	0.009725 
2873.935840  	0.009708 
2875.864656  	0.009642 
2877.793472  	0.009301 
2879.722288  	0.008777 
2881.651104  	0.008009 
2883.579920  	0.007388 
2885.508736  	0.007364 
2887.437552  	0.007698 
2889.366368  	0.007680 
2891.295184  	0.007220 
2893.224000  	0.006932 
2895.152816  	0.007078 
2897.081632  	0.006569 
2899.010448  	0.004520 
2900.939264  	0.002959 
2902.868080  	0.004463 
2904.796896  	0.006082 
2906.725712  	0.006701 
2908.654528  	0.007234 
2910.583344  	0.007622 
2912.512160  	0.008857 
2914.440976  	0.010689 
2916.369792  	0.011834 
2918.298608  	0.012415 
2920.227424  	0.012803 
2922.156240  	0.013351 
2924.085056  	0.013985 
2926.013872  	0.014767 
2927.942688  	0.015561 
2929.871504  	0.016381 
2931.800320  	0.017048 
2933.729136  	0.017421 
2935.657952  	0.017623 
2937.586768  	0.017968 
2939.515584  	0.017992 
2941.444400  	0.017855 
2943.373216  	0.017839 
2945.302032  	0.018005 
2947.230848  	0.017955 
2949.159664  	0.017319 
2951.088480  	0.016528 
2953.017296  	0.015999 
2954.946112  	0.015158 
2956.874928  	0.014050 
2958.803744  	0.012945 
2960.732560  	0.012121 
2962.661376  	0.011361 
2964.590192  	0.010153 
2966.519008  	0.008625 
2968.447824  	0.007180 
2970.376640  	0.006177 
2972.305456  	0.005537 
2974.234272  	0.005652 
2976.163088  	0.005807 
2978.091904  	0.005893 
2980.020720  	0.005989 
2981.949536  	0.006083 
2983.878352  	0.005424 
2985.807168  	0.004180 
2987.735984  	0.003319 
2989.664800  	0.004025 
2991.593616  	0.007816 
2993.522432  	0.009992 
2995.451248  	0.010575 
2997.380064  	0.011581 
2999.308880  	0.012953 
3001.237696  	0.014431 
3003.166512  	0.016029 
3005.095328  	0.017595 
3007.024144  	0.019302 
3008.952960  	0.021051 
3010.881776  	0.022685 
3012.810592  	0.024211 
3014.739408  	0.025627 
3016.668224  	0.027066 
3018.597040  	0.028396 
3020.525856  	0.029554 
3022.454672  	0.030689 
3024.383488  	0.031723 
3026.312304  	0.032823 
3028.241120  	0.033789 
3030.169936  	0.034579 
3032.098752  	0.035519 
3034.027568  	0.036235 
3035.956384  	0.036697 
3037.885200  	0.037319 
3039.814016  	0.038018 
3041.742832  	0.038757 
3043.671648  	0.039247 
3045.600464  	0.039639 
3047.529280  	0.040013 
3049.458096  	0.040460 
3051.386912  	0.040739 
3053.315728  	0.041032 
3055.244544  	0.041486 
3057.173360  	0.042091 
3059.102176  	0.042467 
3061.030992  	0.042733 
3062.959808  	0.043038 
3064.888624  	0.043490 
3066.817440  	0.044045 
3068.746256  	0.044490 
3070.675072  	0.044701 
3072.603888  	0.045030 
3074.532704  	0.045553 
3076.461520  	0.045967 
3078.390336  	0.046286 
3080.319152  	0.046816 
3082.247968  	0.047302 
3084.176784  	0.047545 
3086.105600  	0.047670 
3088.034416  	0.048020 
3089.963232  	0.048498 
3091.892048  	0.048916 
3093.820864  	0.049213 
3095.749680  	0.049573 
3097.678496  	0.049718 
3099.607312  	0.050080 
3101.536128  	0.050491 
3103.464944  	0.050905 
3105.393760  	0.051314 
3107.322576  	0.051700 
3109.251392  	0.052075 
3111.180208  	0.052413 
3113.109024  	0.052587 
3115.037840  	0.052798 
3116.966656  	0.053116 
3118.895472  	0.053286 
3120.824288  	0.053503 
3122.753104  	0.054014 
3124.681920  	0.054475 
3126.610736  	0.054517 
3128.539552  	0.054698 
3130.468368  	0.054869 
3132.397184  	0.055026 
3134.326000  	0.055098 
3136.254816  	0.055291 
3138.183632  	0.055722 
3140.112448  	0.055987 
3142.041264  	0.056033 
3143.970080  	0.056149 
3145.898896  	0.056344 
3147.827712  	0.056578 
3149.756528  	0.056995 
3151.685344  	0.057543 
3153.614160  	0.057933 
3155.542976  	0.058143 
3157.471792  	0.058405 
3159.400608  	0.058844 
3161.329424  	0.059251 
3163.258240  	0.059566 
3165.187056  	0.059708 
3167.115872  	0.059911 
3169.044688  	0.059991 
3170.973504  	0.059991 
3172.902320  	0.060106 
3174.831136  	0.060365 
3176.759952  	0.060753 
3178.688768  	0.061075 
3180.617584  	0.061064 
3182.546400  	0.060952 
3184.475216  	0.061164 
3186.404032  	0.061274 
3188.332848  	0.061271 
3190.261664  	0.061461 
3192.190480  	0.061561 
3194.119296  	0.061243 
3196.048112  	0.061193 
3197.976928  	0.061428 
3199.905744  	0.061298 
3201.834560  	0.061232 
3203.763376  	0.061438 
3205.692192  	0.061414 
3207.621008  	0.061161 
3209.549824  	0.060923 
3211.478640  	0.060894 
3213.407456  	0.060748 
3215.336272  	0.060712 
3217.265088  	0.060717 
3219.193904  	0.060571 
3221.122720  	0.060188 
3223.051536  	0.059806 
3224.980352  	0.059624 
3226.909168  	0.059523 
3228.837984  	0.059253 
3230.766800  	0.059266 
3232.695616  	0.059383 
3234.624432  	0.059274 
3236.553248  	0.059103 
3238.482064  	0.058807 
3240.410880  	0.058698 
3242.339696  	0.058805 
3244.268512  	0.058859 
3246.197328  	0.058843 
3248.126144  	0.058629 
3250.054960  	0.058602 
3251.983776  	0.058721 
3253.912592  	0.058978 
3255.841408  	0.059086 
3257.770224  	0.059115 
3259.699040  	0.059307 
3261.627856  	0.059495 
3263.556672  	0.059611 
3265.485488  	0.059495 
3267.414304  	0.059622 
3269.343120  	0.059835 
3271.271936  	0.059978 
3273.200752  	0.060217 
3275.129568  	0.060314 
3277.058384  	0.060337 
3278.987200  	0.060369 
3280.916016  	0.060565 
3282.844832  	0.060705 
3284.773648  	0.060640 
3286.702464  	0.060671 
3288.631280  	0.060939 
3290.560096  	0.061139 
3292.488912  	0.061448 
3294.417728  	0.061662 
3296.346544  	0.061732 
3298.275360  	0.061792 
3300.204176  	0.062099 
3302.132992  	0.062314 
3304.061808  	0.062596 
3305.990624  	0.062982 
3307.919440  	0.063120 
3309.848256  	0.063228 
3311.777072  	0.063239 
3313.705888  	0.063436 
3315.634704  	0.063775 
3317.563520  	0.064062 
3319.492336  	0.064177 
3321.421152  	0.064164 
3323.349968  	0.064317 
3325.278784  	0.064600 
3327.207600  	0.064742 
3329.136416  	0.064645 
3331.065232  	0.064612 
3332.994048  	0.064736 
3334.922864  	0.064672 
3336.851680  	0.064486 
3338.780496  	0.064449 
3340.709312  	0.064374 
3342.638128  	0.064209 
3344.566944  	0.064124 
3346.495760  	0.063972 
3348.424576  	0.063741 
3350.353392  	0.063463 
3352.282208  	0.063230 
3354.211024  	0.063192 
3356.139840  	0.063208 
3358.068656  	0.062807 
3359.997472  	0.062388 
3361.926288  	0.062232 
3363.855104  	0.061939 
3365.783920  	0.061549 
3367.712736  	0.061324 
3369.641552  	0.060818 
3371.570368  	0.060281 
3373.499184  	0.060113 
3375.428000  	0.059862 
3377.356816  	0.059501 
3379.285632  	0.059247 
3381.214448  	0.059132 
3383.143264  	0.058865 
3385.072080  	0.058844 
3387.000896  	0.058504 
3388.929712  	0.057967 
3390.858528  	0.057673 
3392.787344  	0.057391 
3394.716160  	0.056872 
3396.644976  	0.056639 
3398.573792  	0.056421 
3400.502608  	0.055867 
3402.431424  	0.055444 
3404.360240  	0.055115 
3406.289056  	0.054778 
3408.217872  	0.054459 
3410.146688  	0.054168 
3412.075504  	0.054051 
3414.004320  	0.053756 
3415.933136  	0.053228 
3417.861952  	0.052792 
3419.790768  	0.052704 
3421.719584  	0.052444 
3423.648400  	0.051910 
3425.577216  	0.051514 
3427.506032  	0.051172 
3429.434848  	0.050729 
3431.363664  	0.050442 
3433.292480  	0.050207 
3435.221296  	0.049855 
3437.150112  	0.049446 
3439.078928  	0.049292 
3441.007744  	0.049075 
3442.936560  	0.048852 
3444.865376  	0.048470 
3446.794192  	0.047925 
3448.723008  	0.047336 
3450.651824  	0.046621 
3452.580640  	0.046096 
3454.509456  	0.045640 
3456.438272  	0.045283 
3458.367088  	0.044934 
3460.295904  	0.044582 
3462.224720  	0.044025 
3464.153536  	0.043403 
3466.082352  	0.042958 
3468.011168  	0.042523 
3469.939984  	0.042053 
3471.868800  	0.041587 
3473.797616  	0.041270 
3475.726432  	0.040945 
3477.655248  	0.040245 
3479.584064  	0.039835 
3481.512880  	0.039759 
3483.441696  	0.039118 
3485.370512  	0.038209 
3487.299328  	0.037872 
3489.228144  	0.037561 
3491.156960  	0.036822 
3493.085776  	0.036303 
3495.014592  	0.036124 
3496.943408  	0.035833 
3498.872224  	0.035064 
3500.801040  	0.034837 
3502.729856  	0.034949 
3504.658672  	0.034256 
3506.587488  	0.033124 
3508.516304  	0.033043 
3510.445120  	0.033078 
3512.373936  	0.032629 
3514.302752  	0.032093 
3516.231568  	0.031576 
3518.160384  	0.031194 
3520.089200  	0.030916 
3522.018016  	0.030875 
3523.946832  	0.031230 
3525.875648  	0.030775 
3527.804464  	0.030048 
3529.733280  	0.029532 
3531.662096  	0.028848 
3533.590912  	0.028213 
3535.519728  	0.028143 
3537.448544  	0.028003 
3539.377360  	0.027240 
3541.306176  	0.026754 
3543.234992  	0.026928 
3545.163808  	0.027835 
3547.092624  	0.027502 
3549.021440  	0.025766 
3550.950256  	0.025068 
3552.879072  	0.025359 
3554.807888  	0.024781 
3556.736704  	0.024045 
3558.665520  	0.023931 
3560.594336  	0.023968 
3562.523152  	0.023526 
3564.451968  	0.023590 
3566.380784  	0.024929 
3568.309600  	0.024942 
3570.238416  	0.022688 
3572.167232  	0.021083 
3574.096048  	0.020491 
3576.024864  	0.020098 
3577.953680  	0.019828 
3579.882496  	0.019922 
3581.811312  	0.019650 
3583.740128  	0.018846 
3585.668944  	0.018645 
3587.597760  	0.020002 
3589.526576  	0.019103 
3591.455392  	0.016848 
3593.384208  	0.016596 
3595.313024  	0.016625 
3597.241840  	0.015881 
3599.170656  	0.014861 
3601.099472  	0.014298 
3603.028288  	0.013715 
3604.957104  	0.012993 
3606.885920  	0.012935 
3608.814736  	0.013466 
3610.743552  	0.012806 
3612.672368  	0.012075 
3614.601184  	0.011626 
3616.530000  	0.010220 
3618.458816  	0.009849 
3620.387632  	0.009937 
3622.316448  	0.008371 
3624.245264  	0.006968 
3626.174080  	0.006013 
3628.102896  	0.006026 
3630.031712  	0.007681 
3631.960528  	0.006104 
3633.889344  	0.004620 
3635.818160  	0.003354 
3637.746976  	0.002359 
3639.675792  	0.002198 
3641.604608  	0.001892 
3643.533424  	0.000881 
3645.462240  	-0.000587 
3647.391056  	-0.000950 
3649.319872  	-0.000882 
3651.248688  	-0.000420 
3653.177504  	-0.002265 
3655.106320  	-0.004414 
3657.035136  	-0.004541 
3658.963952  	-0.005390 
3660.892768  	-0.006603 
3662.821584  	-0.007302 
3664.750400  	-0.007473 
3666.679216  	-0.008105 
3668.608032  	-0.008623 
3670.536848  	-0.007664 
3672.465664  	-0.007954 
3674.394480  	-0.009848 
3676.323296  	-0.007983 
3678.252112  	-0.006537 
3680.180928  	-0.006681 
3682.109744  	-0.007664 
3684.038560  	-0.008393 
3685.967376  	-0.009017 
3687.896192  	-0.009580 
3689.825008  	-0.008387 
3691.753824  	-0.007405 
3693.682640  	-0.007418 
3695.611456  	-0.007499 
3697.540272  	-0.006891 
3699.469088  	-0.006581 
3701.397904  	-0.005355 
3703.326720  	-0.004209 
3705.255536  	-0.004464 
3707.184352  	-0.004912 
3709.113168  	-0.004977 
3711.041984  	-0.003885 
3712.970800  	-0.002241 
3714.899616  	-0.002023 
3716.828432  	-0.002738 
3718.757248  	-0.003021 
3720.686064  	-0.003249 
3722.614880  	-0.002407 
3724.543696  	-0.001802 
3726.472512  	-0.001556 
3728.401328  	-0.002539 
3730.330144  	-0.004308 
3732.258960  	-0.004069 
3734.187776  	-0.001890 
3736.116592  	0.000175 
3738.045408  	-0.000975 
3739.974224  	-0.002158 
3741.903040  	-0.002794 
3743.831856  	-0.002466 
3745.760672  	-0.000455 
3747.689488  	-0.002733 
3749.618304  	-0.003913 
3751.547120  	-0.002240 
3753.475936  	-0.000896 
3755.404752  	-0.002000 
3757.333568  	-0.002682 
3759.262384  	-0.002453 
3761.191200  	-0.002000 
3763.120016  	-0.002501 
3765.048832  	-0.002424 
3766.977648  	-0.002249 
3768.906464  	-0.002874 
3770.835280  	-0.001992 
3772.764096  	-0.001945 
3774.692912  	-0.002480 
3776.621728  	-0.003226 
3778.550544  	-0.003347 
3780.479360  	-0.002257 
3782.408176  	-0.002452 
3784.336992  	-0.002714 
3786.265808  	-0.002441 
3788.194624  	-0.002514 
3790.123440  	-0.002703 
3792.052256  	-0.002825 
3793.981072  	-0.003078 
3795.909888  	-0.002955 
3797.838704  	-0.002511 
3799.767520  	-0.003864 
3801.696336  	-0.003048 
3803.625152  	-0.002063 
3805.553968  	-0.003431 
3807.482784  	-0.002663 
3809.411600  	-0.002195 
3811.340416  	-0.002660 
3813.269232  	-0.003356 
3815.198048  	-0.003955 
3817.126864  	-0.002711 
3819.055680  	-0.003471 
3820.984496  	-0.002815 
3822.913312  	-0.001189 
3824.842128  	-0.002420 
3826.770944  	-0.002743 
3828.699760  	-0.002692 
3830.628576  	-0.003341 
3832.557392  	-0.003258 
3834.486208  	-0.003392 
3836.415024  	-0.003856 
3838.343840  	-0.003019 
3840.272656  	-0.002086 
3842.201472  	-0.002458 
3844.130288  	-0.002466 
3846.059104  	-0.002411 
3847.987920  	-0.003059 
3849.916736  	-0.003734 
3851.845552  	-0.004465 
3853.774368  	-0.002005 
3855.703184  	-0.000908 
3857.632000  	-0.002178 
3859.560816  	-0.003148 
3861.489632  	-0.003248 
3863.418448  	-0.002766 
3865.347264  	-0.001879 
3867.276080  	-0.002449 
3869.204896  	-0.002452 
3871.133712  	-0.000739 
3873.062528  	-0.001930 
3874.991344  	-0.001876 
3876.920160  	-0.002568 
3878.848976  	-0.002953 
3880.777792  	-0.001418 
3882.706608  	-0.001405 
3884.635424  	-0.002224 
3886.564240  	-0.001323 
3888.493056  	-0.002302 
3890.421872  	-0.002608 
3892.350688  	-0.001381 
3894.279504  	-0.001726 
3896.208320  	-0.002501 
3898.137136  	-0.002319 
3900.065952  	-0.001456 
3901.994768  	-0.001063 
3903.923584  	-0.000662 
3905.852400  	-0.000830 
3907.781216  	-0.002139 
3909.710032  	-0.003069 
3911.638848  	-0.003139 
3913.567664  	-0.002898 
3915.496480  	-0.002232 
3917.425296  	-0.001040 
3919.354112  	-0.001090 
3921.282928  	-0.001630 
3923.211744  	-0.001873 
3925.140560  	-0.001440 
3927.069376  	-0.002067 
3928.998192  	-0.002412 
3930.927008  	-0.001496 
3932.855824  	-0.000787 
3934.784640  	-0.001709 
3936.713456  	-0.002314 
3938.642272  	-0.002193 
3940.571088  	-0.002282 
3942.499904  	-0.001508 
3944.428720  	-0.001380 
3946.357536  	-0.001975 
3948.286352  	-0.001633 
3950.215168  	-0.001760 
3952.143984  	-0.002353 
3954.072800  	-0.002663 
3956.001616  	-0.002631 
3957.930432  	-0.002385 
3959.859248  	-0.002198 
3961.788064  	-0.002129 
3963.716880  	-0.002343 
3965.645696  	-0.002634 
3967.574512  	-0.002483 
3969.503328  	-0.002435 
3971.432144  	-0.002504 
3973.360960  	-0.002426 
3975.289776  	-0.002085 
3977.218592  	-0.002204 
3979.147408  	-0.002372 
3981.076224  	-0.002398 
3983.005040  	-0.002504 
3984.933856  	-0.002538 
3986.862672  	-0.002448 
3988.791488  	-0.002443 
3990.720304  	-0.002358 
3992.649120  	-0.002520 
3994.577936  	-0.002692 
3996.506752  	-0.002771 
3998.435568  	-0.002686 
4000.364384  	-0.002642 