##TITLE=No Description
##DATA TYPE=INFRARED SPECTRUM
##XUNITS=1/CM
##YUNITS=Abs
399.264912  	0.611419 
401.193728  	0.608962 
403.122544  	0.604129 
405.051360  	0.596542 
406.980176  	0.584366 
408.908992  	0.569144 
410.837808  	0.567372 
412.766624  	0.563662 
414.695440  	0.566729 
416.624256  	0.565466 
418.553072  	0.560919 
420.481888  	0.546571 
422.410704  	0.549939 
424.339520  	0.549071 
426.268336  	0.546128 
428.197152  	0.530700 
430.125968  	0.530358 
432.054784  	0.527164 
433.983600  	0.521533 
435.912416  	0.519915 
437.841232  	0.524571 
439.770048  	0.524154 
441.698864  	0.525575 
443.627680  	0.518890 
445.556496  	0.513516 
447.485312  	0.511153 
449.414128  	0.515892 
451.342944  	0.511784 
453.271760  	0.506158 
455.200576  	0.501904 
457.129392  	0.503440 
459.058208  	0.503490 
460.987024  	0.506284 
462.915840  	0.504217 
464.844656  	0.503888 
466.773472  	0.502006 
468.702288  	0.501959 
470.631104  	0.500058 
472.559920  	0.500865 
474.488736  	0.498784 
476.417552  	0.503712 
478.346368  	0.502847 
480.275184  	0.499554 
482.204000  	0.495091 
484.132816  	0.494431 
486.061632  	0.492528 
487.990448  	0.497526 
489.919264  	0.496900 
491.848080  	0.494849 
493.776896  	0.491599 
495.705712  	0.491758 
497.634528  	0.490205 
499.563344  	0.491032 
501.492160  	0.488822 
503.420976  	0.487926 
505.349792  	0.487928 
507.278608  	0.490547 
509.207424  	0.487864 
511.136240  	0.486352 
513.065056  	0.487163 
514.993872  	0.489211 
516.922688  	0.488411 
518.851504  	0.487388 
520.780320  	0.483734 
522.709136  	0.485296 
524.637952  	0.484578 
526.566768  	0.484113 
528.495584  	0.480968 
530.424400  	0.477436 
532.353216  	0.475415 
534.282032  	0.473663 
536.210848  	0.467580 
538.139664  	0.464106 
540.068480  	0.461424 
541.997296  	0.458672 
543.926112  	0.451858 
545.854928  	0.448610 
547.783744  	0.446507 
549.712560  	0.442983 
551.641376  	0.439071 
553.570192  	0.437718 
555.499008  	0.434608 
557.427824  	0.431093 
559.356640  	0.427896 
561.285456  	0.424544 
563.214272  	0.420597 
565.143088  	0.418315 
567.071904  	0.414646 
569.000720  	0.411831 
570.929536  	0.408698 
572.858352  	0.404930 
574.787168  	0.400529 
576.715984  	0.397608 
578.644800  	0.393947 
580.573616  	0.391111 
582.502432  	0.387696 
584.431248  	0.385294 
586.360064  	0.382336 
588.288880  	0.379540 
590.217696  	0.377685 
592.146512  	0.376365 
594.075328  	0.373982 
596.004144  	0.371730 
597.932960  	0.370052 
599.861776  	0.369934 
601.790592  	0.368564 
603.719408  	0.366831 
605.648224  	0.364545 
607.577040  	0.363512 
609.505856  	0.362967 
611.434672  	0.362235 
613.363488  	0.360088 
615.292304  	0.358246 
617.221120  	0.355957 
619.149936  	0.354616 
621.078752  	0.352626 
623.007568  	0.350517 
624.936384  	0.348915 
626.865200  	0.348407 
628.794016  	0.346804 
630.722832  	0.345495 
632.651648  	0.344375 
634.580464  	0.343528 
636.509280  	0.342871 
638.438096  	0.342505 
640.366912  	0.341800 
642.295728  	0.340161 
644.224544  	0.337588 
646.153360  	0.334560 
648.082176  	0.330850 
650.010992  	0.328276 
651.939808  	0.325249 
653.868624  	0.321840 
655.797440  	0.317533 
657.726256  	0.314322 
659.655072  	0.311503 
661.583888  	0.307974 
663.512704  	0.304790 
665.441520  	0.302168 
667.370336  	0.296575 
669.299152  	0.291836 
671.227968  	0.291238 
673.156784  	0.288985 
675.085600  	0.286729 
677.014416  	0.284970 
678.943232  	0.283106 
680.872048  	0.281151 
682.800864  	0.280009 
684.729680  	0.278914 
686.658496  	0.277171 
688.587312  	0.275251 
690.516128  	0.273086 
692.444944  	0.271763 
694.373760  	0.270457 
696.302576  	0.268799 
698.231392  	0.266900 
700.160208  	0.264216 
702.089024  	0.261453 
704.017840  	0.259958 
705.946656  	0.257451 
707.875472  	0.254963 
709.804288  	0.253089 
711.733104  	0.251284 
713.661920  	0.249459 
715.590736  	0.248738 
717.519552  	0.248135 
719.448368  	0.248093 
721.377184  	0.248745 
723.306000  	0.249213 
725.234816  	0.248866 
727.163632  	0.247633 
729.092448  	0.244987 
731.021264  	0.242258 
732.950080  	0.239826 
734.878896  	0.237469 
736.807712  	0.234935 
738.736528  	0.233242 
740.665344  	0.231848 
742.594160  	0.230322 
744.522976  	0.228831 
746.451792  	0.227435 
748.380608  	0.226118 
750.309424  	0.225210 
752.238240  	0.224498 
754.167056  	0.223956 
756.095872  	0.222873 
758.024688  	0.221628 
759.953504  	0.220783 
761.882320  	0.220430 
763.811136  	0.220390 
765.739952  	0.219910 
767.668768  	0.218575 
769.597584  	0.216957 
771.526400  	0.216498 
773.455216  	0.217681 
775.384032  	0.219298 
777.312848  	0.221956 
779.241664  	0.225090 
781.170480  	0.225820 
783.099296  	0.223135 
785.028112  	0.218440 
786.956928  	0.212976 
788.885744  	0.208305 
790.814560  	0.204944 
792.743376  	0.202833 
794.672192  	0.201162 
796.601008  	0.199878 
798.529824  	0.197926 
800.458640  	0.194761 
802.387456  	0.191501 
804.316272  	0.189720 
806.245088  	0.188955 
808.173904  	0.188704 
810.102720  	0.188299 
812.031536  	0.187889 
813.960352  	0.187463 
815.889168  	0.187222 
817.817984  	0.187012 
819.746800  	0.186530 
821.675616  	0.185626 
823.604432  	0.184753 
825.533248  	0.183851 
827.462064  	0.182519 
829.390880  	0.181163 
831.319696  	0.179750 
833.248512  	0.178326 
835.177328  	0.176719 
837.106144  	0.174300 
839.034960  	0.171373 
840.963776  	0.168683 
842.892592  	0.166086 
844.821408  	0.163286 
846.750224  	0.160418 
848.679040  	0.158157 
850.607856  	0.156130 
852.536672  	0.153933 
854.465488  	0.151865 
856.394304  	0.150128 
858.323120  	0.148216 
860.251936  	0.146097 
862.180752  	0.143906 
864.109568  	0.141664 
866.038384  	0.139252 
867.967200  	0.137488 
869.896016  	0.136147 
871.824832  	0.134891 
873.753648  	0.134099 
875.682464  	0.134178 
877.611280  	0.133598 
879.540096  	0.132997 
881.468912  	0.134036 
883.397728  	0.134482 
885.326544  	0.134601 
887.255360  	0.134301 
889.184176  	0.133009 
891.112992  	0.131038 
893.041808  	0.129906 
894.970624  	0.128513 
896.899440  	0.126034 
898.828256  	0.122973 
900.757072  	0.120339 
902.685888  	0.118309 
904.614704  	0.117197 
906.543520  	0.117207 
908.472336  	0.118618 
910.401152  	0.121026 
912.329968  	0.123609 
914.258784  	0.126211 
916.187600  	0.128692 
918.116416  	0.130534 
920.045232  	0.131371 
921.974048  	0.131203 
923.902864  	0.130453 
925.831680  	0.129534 
927.760496  	0.128555 
929.689312  	0.127819 
931.618128  	0.127665 
933.546944  	0.127539 
935.475760  	0.127556 
937.404576  	0.127699 
939.333392  	0.128221 
941.262208  	0.129289 
943.191024  	0.131227 
945.119840  	0.134201 
947.048656  	0.137974 
948.977472  	0.142889 
950.906288  	0.148540 
952.835104  	0.154492 
954.763920  	0.160472 
956.692736  	0.166115 
958.621552  	0.170628 
960.550368  	0.173595 
962.479184  	0.174769 
964.408000  	0.173363 
966.336816  	0.169906 
968.265632  	0.164370 
970.194448  	0.157232 
972.123264  	0.148986 
974.052080  	0.140310 
975.980896  	0.131799 
977.909712  	0.123771 
979.838528  	0.116915 
981.767344  	0.111306 
983.696160  	0.107226 
985.624976  	0.104926 
987.553792  	0.104346 
989.482608  	0.105493 
991.411424  	0.108196 
993.340240  	0.112201 
995.269056  	0.117302 
997.197872  	0.122600 
999.126688  	0.127658 
1001.055504  	0.132620 
1002.984320  	0.137393 
1004.913136  	0.141752 
1006.841952  	0.145465 
1008.770768  	0.148328 
1010.699584  	0.150296 
1012.628400  	0.151401 
1014.557216  	0.151649 
1016.486032  	0.151690 
1018.414848  	0.151628 
1020.343664  	0.151702 
1022.272480  	0.151446 
1024.201296  	0.150305 
1026.130112  	0.146033 
1028.058928  	0.144252 
1029.987744  	0.147739 
1031.916560  	0.149030 
1033.845376  	0.148324 
1035.774192  	0.146500 
1037.703008  	0.145698 
1039.631824  	0.148687 
1041.560640  	0.152708 
1043.489456  	0.158131 
1045.418272  	0.165819 
1047.347088  	0.175454 
1049.275904  	0.185996 
1051.204720  	0.196468 
1053.133536  	0.206128 
1055.062352  	0.213443 
1056.991168  	0.217045 
1058.919984  	0.222188 
1060.848800  	0.226814 
1062.777616  	0.225808 
1064.706432  	0.218767 
1066.635248  	0.213813 
1068.564064  	0.214912 
1070.492880  	0.212838 
1072.421696  	0.206356 
1074.350512  	0.200075 
1076.279328  	0.196058 
1078.208144  	0.194817 
1080.136960  	0.195138 
1082.065776  	0.196040 
1083.994592  	0.197113 
1085.923408  	0.197956 
1087.852224  	0.197985 
1089.781040  	0.197854 
1091.709856  	0.197176 
1093.638672  	0.193573 
1095.567488  	0.187166 
1097.496304  	0.180141 
1099.425120  	0.172515 
1101.353936  	0.164470 
1103.282752  	0.156410 
1105.211568  	0.148256 
1107.140384  	0.140229 
1109.069200  	0.132536 
1110.998016  	0.125479 
1112.926832  	0.118852 
1114.855648  	0.112338 
1116.784464  	0.105891 
1118.713280  	0.100065 
1120.642096  	0.094777 
1122.570912  	0.089715 
1124.499728  	0.084867 
1126.428544  	0.080106 
1128.357360  	0.075536 
1130.286176  	0.071615 
1132.214992  	0.068359 
1134.143808  	0.065545 
1136.072624  	0.062981 
1138.001440  	0.060521 
1139.930256  	0.058035 
1141.859072  	0.055746 
1143.787888  	0.053304 
1145.716704  	0.051482 
1147.645520  	0.049991 
1149.574336  	0.048654 
1151.503152  	0.047754 
1153.431968  	0.047474 
1155.360784  	0.047451 
1157.289600  	0.047899 
1159.218416  	0.048853 
1161.147232  	0.050035 
1163.076048  	0.051054 
1165.004864  	0.052541 
1166.933680  	0.053854 
1168.862496  	0.055562 
1170.791312  	0.057606 
1172.720128  	0.059558 
1174.648944  	0.061341 
1176.577760  	0.063349 
1178.506576  	0.065300 
1180.435392  	0.067390 
1182.364208  	0.069334 
1184.293024  	0.071577 
1186.221840  	0.073784 
1188.150656  	0.076131 
1190.079472  	0.079174 
1192.008288  	0.082773 
1193.937104  	0.086740 
1195.865920  	0.091509 
1197.794736  	0.096305 
1199.723552  	0.101467 
1201.652368  	0.107032 
1203.581184  	0.112844 
1205.510000  	0.118286 
1207.438816  	0.123807 
1209.367632  	0.129157 
1211.296448  	0.134418 
1213.225264  	0.139021 
1215.154080  	0.142763 
1217.082896  	0.145501 
1219.011712  	0.147694 
1220.940528  	0.149705 
1222.869344  	0.151252 
1224.798160  	0.152364 
1226.726976  	0.152964 
1228.655792  	0.153339 
1230.584608  	0.153547 
1232.513424  	0.153604 
1234.442240  	0.153037 
1236.371056  	0.151618 
1238.299872  	0.149170 
1240.228688  	0.143608 
1242.157504  	0.138175 
1244.086320  	0.134615 
1246.015136  	0.128918 
1247.943952  	0.122022 
1249.872768  	0.115382 
1251.801584  	0.109988 
1253.730400  	0.104666 
1255.659216  	0.099356 
1257.588032  	0.094242 
1259.516848  	0.089571 
1261.445664  	0.085389 
1263.374480  	0.081669 
1265.303296  	0.078420 
1267.232112  	0.075938 
1269.160928  	0.074221 
1271.089744  	0.073007 
1273.018560  	0.072395 
1274.947376  	0.072299 
1276.876192  	0.072197 
1278.805008  	0.071701 
1280.733824  	0.070442 
1282.662640  	0.068179 
1284.591456  	0.065159 
1286.520272  	0.062173 
1288.449088  	0.059745 
1290.377904  	0.057660 
1292.306720  	0.056042 
1294.235536  	0.054259 
1296.164352  	0.051909 
1298.093168  	0.048884 
1300.021984  	0.045912 
1301.950800  	0.043116 
1303.879616  	0.040731 
1305.808432  	0.038670 
1307.737248  	0.037102 
1309.666064  	0.035726 
1311.594880  	0.035091 
1313.523696  	0.034794 
1315.452512  	0.034578 
1317.381328  	0.034900 
1319.310144  	0.035333 
1321.238960  	0.035562 
1323.167776  	0.036029 
1325.096592  	0.036476 
1327.025408  	0.036691 
1328.954224  	0.036369 
1330.883040  	0.035729 
1332.811856  	0.034811 
1334.740672  	0.034304 
1336.669488  	0.034244 
1338.598304  	0.034573 
1340.527120  	0.033659 
1342.455936  	0.031917 
1344.384752  	0.031404 
1346.313568  	0.031865 
1348.242384  	0.032769 
1350.171200  	0.034031 
1352.100016  	0.035414 
1354.028832  	0.036932 
1355.957648  	0.038477 
1357.886464  	0.039934 
1359.815280  	0.041536 
1361.744096  	0.043420 
1363.672912  	0.043964 
1365.601728  	0.043302 
1367.530544  	0.043294 
1369.459360  	0.042836 
1371.388176  	0.041442 
1373.316992  	0.040025 
1375.245808  	0.037436 
1377.174624  	0.034747 
1379.103440  	0.032214 
1381.032256  	0.029897 
1382.961072  	0.028425 
1384.889888  	0.028386 
1386.818704  	0.029134 
1388.747520  	0.028459 
1390.676336  	0.025999 
1392.605152  	0.021949 
1394.533968  	0.020833 
1396.462784  	0.025170 
1398.391600  	0.026670 
1400.320416  	0.025590 
1402.249232  	0.024629 
1404.178048  	0.025116 
1406.106864  	0.025633 
1408.035680  	0.026984 
1409.964496  	0.029463 
1411.893312  	0.032440 
1413.822128  	0.035327 
1415.750944  	0.038994 
1417.679760  	0.041945 
1419.608576  	0.042359 
1421.537392  	0.041888 
1423.466208  	0.042254 
1425.395024  	0.041109 
1427.323840  	0.039838 
1429.252656  	0.038791 
1431.181472  	0.037809 
1433.110288  	0.037485 
1435.039104  	0.038154 
1436.967920  	0.038400 
1438.896736  	0.038096 
1440.825552  	0.038328 
1442.754368  	0.038744 
1444.683184  	0.038796 
1446.612000  	0.039105 
1448.540816  	0.038602 
1450.469632  	0.038322 
1452.398448  	0.038765 
1454.327264  	0.039885 
1456.256080  	0.041685 
1458.184896  	0.041660 
1460.113712  	0.041101 
1462.042528  	0.041317 
1463.971344  	0.041910 
1465.900160  	0.043196 
1467.828976  	0.044959 
1469.757792  	0.047551 
1471.686608  	0.051124 
1473.615424  	0.055067 
1475.544240  	0.057844 
1477.473056  	0.059670 
1479.401872  	0.060617 
1481.330688  	0.061643 
1483.259504  	0.061783 
1485.188320  	0.061859 
1487.117136  	0.061418 
1489.045952  	0.060664 
1490.974768  	0.057228 
1492.903584  	0.053782 
1494.832400  	0.051477 
1496.761216  	0.048468 
1498.690032  	0.045202 
1500.618848  	0.042957 
1502.547664  	0.041047 
1504.476480  	0.039538 
1506.405296  	0.039440 
1508.334112  	0.039588 
1510.262928  	0.037810 
1512.191744  	0.035975 
1514.120560  	0.035209 
1516.049376  	0.035870 
1517.978192  	0.035708 
1519.907008  	0.036395 
1521.835824  	0.037785 
1523.764640  	0.039670 
1525.693456  	0.042304 
1527.622272  	0.043966 
1529.551088  	0.044660 
1531.479904  	0.045372 
1533.408720  	0.044914 
1535.337536  	0.043459 
1537.266352  	0.042138 
1539.195168  	0.039268 
1541.123984  	0.036761 
1543.052800  	0.037346 
1544.981616  	0.036720 
1546.910432  	0.034846 
1548.839248  	0.034763 
1550.768064  	0.034951 
1552.696880  	0.034333 
1554.625696  	0.034892 
1556.554512  	0.035010 
1558.483328  	0.035679 
1560.412144  	0.037806 
1562.340960  	0.040251 
1564.269776  	0.042356 
1566.198592  	0.045525 
1568.127408  	0.048449 
1570.056224  	0.052276 
1571.985040  	0.055758 
1573.913856  	0.058242 
1575.842672  	0.059340 
1577.771488  	0.060837 
1579.700304  	0.061415 
1581.629120  	0.061505 
1583.557936  	0.061684 
1585.486752  	0.062838 
1587.415568  	0.065001 
1589.344384  	0.068588 
1591.273200  	0.072697 
1593.202016  	0.077467 
1595.130832  	0.082031 
1597.059648  	0.086483 
1598.988464  	0.090087 
1600.917280  	0.093192 
1602.846096  	0.094782 
1604.774912  	0.095584 
1606.703728  	0.095536 
1608.632544  	0.095082 
1610.561360  	0.094080 
1612.490176  	0.093693 
1614.418992  	0.093632 
1616.347808  	0.093943 
1618.276624  	0.095739 
1620.205440  	0.099655 
1622.134256  	0.103380 
1624.063072  	0.108574 
1625.991888  	0.114019 
1627.920704  	0.120144 
1629.849520  	0.126611 
1631.778336  	0.133289 
1633.707152  	0.138722 
1635.635968  	0.144106 
1637.564784  	0.149876 
1639.493600  	0.155002 
1641.422416  	0.158453 
1643.351232  	0.161701 
1645.280048  	0.163459 
1647.208864  	0.163727 
1649.137680  	0.164069 
1651.066496  	0.165330 
1652.995312  	0.161811 
1654.924128  	0.159963 
1656.852944  	0.160274 
1658.781760  	0.159606 
1660.710576  	0.158623 
1662.639392  	0.156567 
1664.568208  	0.154655 
1666.497024  	0.154673 
1668.425840  	0.153401 
1670.354656  	0.151050 
1672.283472  	0.150318 
1674.212288  	0.150382 
1676.141104  	0.149174 
1678.069920  	0.150117 
1679.998736  	0.151417 
1681.927552  	0.152372 
1683.856368  	0.151325 
1685.785184  	0.150146 
1687.714000  	0.151078 
1689.642816  	0.150234 
1691.571632  	0.148181 
1693.500448  	0.147193 
1695.429264  	0.144246 
1697.358080  	0.140762 
1699.286896  	0.138178 
1701.215712  	0.132032 
1703.144528  	0.129763 
1705.073344  	0.125962 
1707.002160  	0.120447 
1708.930976  	0.116214 
1710.859792  	0.111577 
1712.788608  	0.106797 
1714.717424  	0.101777 
1716.646240  	0.095265 
1718.575056  	0.086986 
1720.503872  	0.080900 
1722.432688  	0.076043 
1724.361504  	0.069608 
1726.290320  	0.063864 
1728.219136  	0.059077 
1730.147952  	0.054807 
1732.076768  	0.050512 
1734.005584  	0.045261 
1735.934400  	0.039334 
1737.863216  	0.036590 
1739.792032  	0.032177 
1741.720848  	0.029374 
1743.649664  	0.027241 
1745.578480  	0.024614 
1747.507296  	0.022253 
1749.436112  	0.021010 
1751.364928  	0.019337 
1753.293744  	0.017398 
1755.222560  	0.016045 
1757.151376  	0.015444 
1759.080192  	0.014327 
1761.009008  	0.013857 
1762.937824  	0.012934 
1764.866640  	0.012397 
1766.795456  	0.012265 
1768.724272  	0.012395 
1770.653088  	0.011060 
1772.581904  	0.010341 
1774.510720  	0.010586 
1776.439536  	0.010842 
1778.368352  	0.010495 
1780.297168  	0.010716 
1782.225984  	0.010162 
1784.154800  	0.009993 
1786.083616  	0.009763 
1788.012432  	0.009596 
1789.941248  	0.009587 
1791.870064  	0.009784 
1793.798880  	0.009209 
1795.727696  	0.009444 
1797.656512  	0.008993 
1799.585328  	0.008982 
1801.514144  	0.009161 
1803.442960  	0.008592 
1805.371776  	0.007824 
1807.300592  	0.007985 
1809.229408  	0.007782 
1811.158224  	0.007872 
1813.087040  	0.007560 
1815.015856  	0.007331 
1816.944672  	0.007169 
1818.873488  	0.007310 
1820.802304  	0.007413 
1822.731120  	0.007858 
1824.659936  	0.008016 
1826.588752  	0.007875 
1828.517568  	0.007549 
1830.446384  	0.007898 
1832.375200  	0.007561 
1834.304016  	0.007436 
1836.232832  	0.007344 
1838.161648  	0.007768 
1840.090464  	0.007623 
1842.019280  	0.007838 
1843.948096  	0.007709 
1845.876912  	0.007737 
1847.805728  	0.007474 
1849.734544  	0.007230 
1851.663360  	0.006817 
1853.592176  	0.007032 
1855.520992  	0.007077 
1857.449808  	0.007468 
1859.378624  	0.007292 
1861.307440  	0.007099 
1863.236256  	0.006738 
1865.165072  	0.006903 
1867.093888  	0.007264 
1869.022704  	0.008062 
1870.951520  	0.007571 
1872.880336  	0.007162 
1874.809152  	0.006728 
1876.737968  	0.006855 
1878.666784  	0.006494 
1880.595600  	0.006495 
1882.524416  	0.006555 
1884.453232  	0.006639 
1886.382048  	0.006217 
1888.310864  	0.006731 
1890.239680  	0.006977 
1892.168496  	0.006833 
1894.097312  	0.006541 
1896.026128  	0.006682 
1897.954944  	0.006168 
1899.883760  	0.006184 
1901.812576  	0.005981 
1903.741392  	0.006036 
1905.670208  	0.006019 
1907.599024  	0.006350 
1909.527840  	0.006049 
1911.456656  	0.006225 
1913.385472  	0.006279 
1915.314288  	0.006551 
1917.243104  	0.006643 
1919.171920  	0.006483 
1921.100736  	0.006253 
1923.029552  	0.006857 
1924.958368  	0.005713 
1926.887184  	0.005627 
1928.816000  	0.005268 
1930.744816  	0.005053 
1932.673632  	0.004907 
1934.602448  	0.005784 
1936.531264  	0.005920 
1938.460080  	0.005783 
1940.388896  	0.005826 
1942.317712  	0.006209 
1944.246528  	0.005617 
1946.175344  	0.005943 
1948.104160  	0.004932 
1950.032976  	0.004857 
1951.961792  	0.004923 
1953.890608  	0.005562 
1955.819424  	0.005369 
1957.748240  	0.005385 
1959.677056  	0.005296 
1961.605872  	0.005506 
1963.534688  	0.004514 
1965.463504  	0.005781 
1967.392320  	0.005482 
1969.321136  	0.004453 
1971.249952  	0.004303 
1973.178768  	0.005958 
1975.107584  	0.005214 
1977.036400  	0.004802 
1978.965216  	0.007219 
1980.894032  	0.007888 
1982.822848  	0.005768 
1984.751664  	0.006113 
1986.680480  	0.006749 
1988.609296  	0.007475 
1990.538112  	0.007140 
1992.466928  	0.007024 
1994.395744  	0.005754 
1996.324560  	0.005357 
1998.253376  	0.005301 
2000.182192  	0.005743 
2002.111008  	0.005995 
2004.039824  	0.005907 
2005.968640  	0.004553 
2007.897456  	0.005892 
2009.826272  	0.005448 
2011.755088  	0.003851 
2013.683904  	0.004503 
2015.612720  	0.006032 
2017.541536  	0.005419 
2019.470352  	0.005365 
2021.399168  	0.004916 
2023.327984  	0.006424 
2025.256800  	0.006291 
2027.185616  	0.005636 
2029.114432  	0.004661 
2031.043248  	0.006539 
2032.972064  	0.006904 
2034.900880  	0.006628 
2036.829696  	0.006104 
2038.758512  	0.006173 
2040.687328  	0.005819 
2042.616144  	0.005883 
2044.544960  	0.005665 
2046.473776  	0.006371 
2048.402592  	0.006300 
2050.331408  	0.007114 
2052.260224  	0.006551 
2054.189040  	0.006482 
2056.117856  	0.005705 
2058.046672  	0.005407 
2059.975488  	0.005486 
2061.904304  	0.006020 
2063.833120  	0.006859 
2065.761936  	0.007093 
2067.690752  	0.006502 
2069.619568  	0.005733 
2071.548384  	0.004534 
2073.477200  	0.004964 
2075.406016  	0.006093 
2077.334832  	0.006651 
2079.263648  	0.005913 
2081.192464  	0.005469 
2083.121280  	0.005790 
2085.050096  	0.006010 
2086.978912  	0.005764 
2088.907728  	0.005798 
2090.836544  	0.005499 
2092.765360  	0.005476 
2094.694176  	0.005653 
2096.622992  	0.005636 
2098.551808  	0.005108 
2100.480624  	0.005444 
2102.409440  	0.005394 
2104.338256  	0.005623 
2106.267072  	0.005693 
2108.195888  	0.006043 
2110.124704  	0.006328 
2112.053520  	0.006428 
2113.982336  	0.006090 
2115.911152  	0.006274 
2117.839968  	0.006115 
2119.768784  	0.005644 
2121.697600  	0.005008 
2123.626416  	0.004910 
2125.555232  	0.004928 
2127.484048  	0.005567 
2129.412864  	0.004810 
2131.341680  	0.003577 
2133.270496  	0.003953 
2135.199312  	0.005075 
2137.128128  	0.005283 
2139.056944  	0.005285 
2140.985760  	0.004018 
2142.914576  	0.005097 
2144.843392  	0.005517 
2146.772208  	0.005748 
2148.701024  	0.005511 
2150.629840  	0.005384 
2152.558656  	0.004504 
2154.487472  	0.003974 
2156.416288  	0.002822 
2158.345104  	0.004943 
2160.273920  	0.007196 
2162.202736  	0.007666 
2164.131552  	0.006771 
2166.060368  	0.007701 
2167.989184  	0.006575 
2169.918000  	0.005845 
2171.846816  	0.005866 
2173.775632  	0.005692 
2175.704448  	0.006309 
2177.633264  	0.007566 
2179.562080  	0.007242 
2181.490896  	0.006563 
2183.419712  	0.005626 
2185.348528  	0.006386 
2187.277344  	0.006039 
2189.206160  	0.006001 
2191.134976  	0.006775 
2193.063792  	0.007760 
2194.992608  	0.008477 
2196.921424  	0.007669 
2198.850240  	0.006821 
2200.779056  	0.006843 
2202.707872  	0.006987 
2204.636688  	0.006903 
2206.565504  	0.006791 
2208.494320  	0.006969 
2210.423136  	0.006014 
2212.351952  	0.006128 
2214.280768  	0.006509 
2216.209584  	0.006065 
2218.138400  	0.005922 
2220.067216  	0.006775 
2221.996032  	0.006850 
2223.924848  	0.006214 
2225.853664  	0.006306 
2227.782480  	0.006762 
2229.711296  	0.006891 
2231.640112  	0.007018 
2233.568928  	0.006809 
2235.497744  	0.006620 
2237.426560  	0.006023 
2239.355376  	0.006344 
2241.284192  	0.006237 
2243.213008  	0.006034 
2245.141824  	0.006018 
2247.070640  	0.005775 
2248.999456  	0.005332 
2250.928272  	0.005575 
2252.857088  	0.005788 
2254.785904  	0.005922 
2256.714720  	0.006109 
2258.643536  	0.006499 
2260.572352  	0.006478 
2262.501168  	0.006384 
2264.429984  	0.006292 
2266.358800  	0.006773 
2268.287616  	0.006753 
2270.216432  	0.006623 
2272.145248  	0.006315 
2274.074064  	0.006536 
2276.002880  	0.006600 
2277.931696  	0.006945 
2279.860512  	0.007264 
2281.789328  	0.007455 
2283.718144  	0.007429 
2285.646960  	0.007725 
2287.575776  	0.007833 
2289.504592  	0.007469 
2291.433408  	0.007148 
2293.362224  	0.007064 
2295.291040  	0.006999 
2297.219856  	0.007399 
2299.148672  	0.007628 
2301.077488  	0.007729 
2303.006304  	0.007630 
2304.935120  	0.007479 
2306.863936  	0.007225 
2308.792752  	0.007186 
2310.721568  	0.007126 
2312.650384  	0.006618 
2314.579200  	0.005823 
2316.508016  	0.005351 
2318.436832  	0.004713 
2320.365648  	0.004031 
2322.294464  	0.003188 
2324.223280  	0.001815 
2326.152096  	-0.000256 
2328.080912  	-0.001753 
2330.009728  	-0.002855 
2331.938544  	-0.003682 
2333.867360  	-0.004967 
2335.796176  	-0.006075 
2337.724992  	-0.006762 
2339.653808  	-0.007132 
2341.582624  	-0.006912 
2343.511440  	-0.005388 
2345.440256  	-0.003133 
2347.369072  	0.000056 
2349.297888  	0.001217 
2351.226704  	-0.000983 
2353.155520  	-0.004614 
2355.084336  	-0.007849 
2357.013152  	-0.010441 
2358.941968  	-0.011888 
2360.870784  	-0.012531 
2362.799600  	-0.011470 
2364.728416  	-0.010152 
2366.657232  	-0.008208 
2368.586048  	-0.006186 
2370.514864  	-0.003404 
2372.443680  	-0.000677 
2374.372496  	0.001943 
2376.301312  	0.003839 
2378.230128  	0.005522 
2380.158944  	0.006592 
2382.087760  	0.006999 
2384.016576  	0.007237 
2385.945392  	0.007322 
2387.874208  	0.006982 
2389.803024  	0.006791 
2391.731840  	0.006632 
2393.660656  	0.006632 
2395.589472  	0.006701 
2397.518288  	0.006734 
2399.447104  	0.006693 
2401.375920  	0.006556 
2403.304736  	0.006561 
2405.233552  	0.006748 
2407.162368  	0.007015 
2409.091184  	0.007086 
2411.020000  	0.006988 
2412.948816  	0.007100 
2414.877632  	0.007189 
2416.806448  	0.007213 
2418.735264  	0.007239 
2420.664080  	0.007193 
2422.592896  	0.007100 
2424.521712  	0.007121 
2426.450528  	0.007156 
2428.379344  	0.007153 
2430.308160  	0.007202 
2432.236976  	0.007395 
2434.165792  	0.007604 
2436.094608  	0.007930 
2438.023424  	0.008051 
2439.952240  	0.008110 
2441.881056  	0.008153 
2443.809872  	0.008242 
2445.738688  	0.008288 
2447.667504  	0.008412 
2449.596320  	0.008235 
2451.525136  	0.008205 
2453.453952  	0.008313 
2455.382768  	0.008647 
2457.311584  	0.008972 
2459.240400  	0.008882 
2461.169216  	0.008505 
2463.098032  	0.008384 
2465.026848  	0.008303 
2466.955664  	0.008272 
2468.884480  	0.008098 
2470.813296  	0.008203 
2472.742112  	0.008247 
2474.670928  	0.008191 
2476.599744  	0.008314 
2478.528560  	0.008411 
2480.457376  	0.008585 
2482.386192  	0.008662 
2484.315008  	0.008513 
2486.243824  	0.008596 
2488.172640  	0.008630 
2490.101456  	0.008596 
2492.030272  	0.008818 
2493.959088  	0.008738 
2495.887904  	0.008433 
2497.816720  	0.008660 
2499.745536  	0.008917 
2501.674352  	0.008934 
2503.603168  	0.008979 
2505.531984  	0.009115 
2507.460800  	0.009070 
2509.389616  	0.009005 
2511.318432  	0.008899 
2513.247248  	0.008969 
2515.176064  	0.009002 
2517.104880  	0.009284 
2519.033696  	0.009458 
2520.962512  	0.009509 
2522.891328  	0.009709 
2524.820144  	0.009791 
2526.748960  	0.009727 
2528.677776  	0.009871 
2530.606592  	0.009845 
2532.535408  	0.009813 
2534.464224  	0.009953 
2536.393040  	0.009990 
2538.321856  	0.009877 
2540.250672  	0.009943 
2542.179488  	0.010035 
2544.108304  	0.010255 
2546.037120  	0.010273 
2547.965936  	0.010497 
2549.894752  	0.010580 
2551.823568  	0.010500 
2553.752384  	0.010458 
2555.681200  	0.010709 
2557.610016  	0.010726 
2559.538832  	0.010622 
2561.467648  	0.010591 
2563.396464  	0.010834 
2565.325280  	0.011098 
2567.254096  	0.011206 
2569.182912  	0.011161 
2571.111728  	0.011096 
2573.040544  	0.010854 
2574.969360  	0.010878 
2576.898176  	0.011172 
2578.826992  	0.011531 
2580.755808  	0.011508 
2582.684624  	0.011413 
2584.613440  	0.011301 
2586.542256  	0.011460 
2588.471072  	0.011663 
2590.399888  	0.011627 
2592.328704  	0.011581 
2594.257520  	0.011798 
2596.186336  	0.012166 
2598.115152  	0.012271 
2600.043968  	0.011983 
2601.972784  	0.011951 
2603.901600  	0.012151 
2605.830416  	0.012327 
2607.759232  	0.012200 
2609.688048  	0.012344 
2611.616864  	0.012549 
2613.545680  	0.012645 
2615.474496  	0.012624 
2617.403312  	0.012634 
2619.332128  	0.012744 
2621.260944  	0.012954 
2623.189760  	0.012949 
2625.118576  	0.012963 
2627.047392  	0.013110 
2628.976208  	0.013399 
2630.905024  	0.013496 
2632.833840  	0.013629 
2634.762656  	0.013724 
2636.691472  	0.013660 
2638.620288  	0.013640 
2640.549104  	0.013801 
2642.477920  	0.013948 
2644.406736  	0.014037 
2646.335552  	0.014227 
2648.264368  	0.014395 
2650.193184  	0.014486 
2652.122000  	0.014600 
2654.050816  	0.014820 
2655.979632  	0.014793 
2657.908448  	0.014766 
2659.837264  	0.014822 
2661.766080  	0.014792 
2663.694896  	0.014788 
2665.623712  	0.014748 
2667.552528  	0.014720 
2669.481344  	0.014884 
2671.410160  	0.015100 
2673.338976  	0.015202 
2675.267792  	0.015353 
2677.196608  	0.015485 
2679.125424  	0.015586 
2681.054240  	0.015595 
2682.983056  	0.015626 
2684.911872  	0.015708 
2686.840688  	0.015862 
2688.769504  	0.016042 
2690.698320  	0.016139 
2692.627136  	0.016184 
2694.555952  	0.016204 
2696.484768  	0.016157 
2698.413584  	0.016347 
2700.342400  	0.016373 
2702.271216  	0.016401 
2704.200032  	0.016678 
2706.128848  	0.016875 
2708.057664  	0.016870 
2709.986480  	0.016849 
2711.915296  	0.016793 
2713.844112  	0.016862 
2715.772928  	0.017082 
2717.701744  	0.017234 
2719.630560  	0.017195 
2721.559376  	0.017193 
2723.488192  	0.017201 
2725.417008  	0.017382 
2727.345824  	0.017489 
2729.274640  	0.017472 
2731.203456  	0.017494 
2733.132272  	0.017658 
2735.061088  	0.017825 
2736.989904  	0.017822 
2738.918720  	0.017732 
2740.847536  	0.017684 
2742.776352  	0.017759 
2744.705168  	0.017979 
2746.633984  	0.018096 
2748.562800  	0.018156 
2750.491616  	0.018201 
2752.420432  	0.018183 
2754.349248  	0.018159 
2756.278064  	0.018215 
2758.206880  	0.018245 
2760.135696  	0.018385 
2762.064512  	0.018355 
2763.993328  	0.018321 
2765.922144  	0.018351 
2767.850960  	0.018289 
2769.779776  	0.018222 
2771.708592  	0.018248 
2773.637408  	0.018231 
2775.566224  	0.018284 
2777.495040  	0.018356 
2779.423856  	0.018345 
2781.352672  	0.018464 
2783.281488  	0.018613 
2785.210304  	0.018497 
2787.139120  	0.018449 
2789.067936  	0.018564 
2790.996752  	0.018610 
2792.925568  	0.018662 
2794.854384  	0.018695 
2796.783200  	0.018723 
2798.712016  	0.018649 
2800.640832  	0.018622 
2802.569648  	0.018764 
2804.498464  	0.018790 
2806.427280  	0.018746 
2808.356096  	0.018824 
2810.284912  	0.018889 
2812.213728  	0.018800 
2814.142544  	0.018785 
2816.071360  	0.018846 
2818.000176  	0.018731 
2819.928992  	0.018509 
2821.857808  	0.018324 
2823.786624  	0.018244 
2825.715440  	0.018221 
2827.644256  	0.018045 
2829.573072  	0.017898 
2831.501888  	0.017585 
2833.430704  	0.017214 
2835.359520  	0.016858 
2837.288336  	0.016420 
2839.217152  	0.016075 
2841.145968  	0.015869 
2843.074784  	0.015583 
2845.003600  	0.015253 
2846.932416  	0.014985 
2848.861232  	0.014770 
2850.790048  	0.014272 
2852.718864  	0.013382 
2854.647680  	0.012399 
2856.576496  	0.011502 
2858.505312  	0.010544 
2860.434128  	0.009522 
2862.362944  	0.008326 
2864.291760  	0.007107 
2866.220576  	0.005994 
2868.149392  	0.005380 
2870.078208  	0.005066 
2872.007024  	0.004841 
2873.935840  	0.004568 
2875.864656  	0.004362 
2877.793472  	0.003953 
2879.722288  	0.003274 
2881.651104  	0.002333 
2883.579920  	0.001554 
2885.508736  	0.001381 
2887.437552  	0.001653 
2889.366368  	0.001621 
2891.295184  	0.001141 
2893.224000  	0.000806 
2895.152816  	0.000888 
2897.081632  	0.000420 
2899.010448  	-0.001882 
2900.939264  	-0.003880 
2902.868080  	-0.002079 
2904.796896  	-0.000101 
2906.725712  	0.000582 
2908.654528  	0.001029 
2910.583344  	0.001447 
2912.512160  	0.002709 
2914.440976  	0.004547 
2916.369792  	0.005602 
2918.298608  	0.006162 
2920.227424  	0.006705 
2922.156240  	0.007160 
2924.085056  	0.007802 
2926.013872  	0.008626 
2927.942688  	0.009394 
2929.871504  	0.010079 
2931.800320  	0.010759 
2933.729136  	0.011199 
2935.657952  	0.011354 
2937.586768  	0.011785 
2939.515584  	0.011918 
2941.444400  	0.011766 
2943.373216  	0.011737 
2945.302032  	0.011715 
2947.230848  	0.011723 
2949.159664  	0.011244 
2951.088480  	0.010301 
2953.017296  	0.009564 
2954.946112  	0.008594 
2956.874928  	0.007366 
2958.803744  	0.006063 
2960.732560  	0.005123 
2962.661376  	0.004433 
2964.590192  	0.003225 
2966.519008  	0.001482 
2968.447824  	-0.000135 
2970.376640  	-0.001196 
2972.305456  	-0.001880 
2974.234272  	-0.001799 
2976.163088  	-0.001594 
2978.091904  	-0.001377 
2980.020720  	-0.001191 
2981.949536  	-0.001065 
2983.878352  	-0.001765 
2985.807168  	-0.003256 
2987.735984  	-0.004358 
2989.664800  	-0.003684 
2991.593616  	0.000716 
2993.522432  	0.003354 
2995.451248  	0.003980 
2997.380064  	0.005112 
2999.308880  	0.006676 
3001.237696  	0.008468 
3003.166512  	0.010159 
3005.095328  	0.011751 
3007.024144  	0.013652 
3008.952960  	0.015577 
3010.881776  	0.017388 
3012.810592  	0.019136 
3014.739408  	0.020748 
3016.668224  	0.022257 
3018.597040  	0.023573 
3020.525856  	0.024922 
3022.454672  	0.026292 
3024.383488  	0.027572 
3026.312304  	0.028883 
3028.241120  	0.030036 
3030.169936  	0.030920 
3032.098752  	0.031912 
3034.027568  	0.032549 
3035.956384  	0.032987 
3037.885200  	0.033808 
3039.814016  	0.034697 
3041.742832  	0.035386 
3043.671648  	0.035857 
3045.600464  	0.036167 
3047.529280  	0.036470 
3049.458096  	0.036906 
3051.386912  	0.037309 
3053.315728  	0.037765 
3055.244544  	0.038160 
3057.173360  	0.038726 
3059.102176  	0.039159 
3061.030992  	0.039411 
3062.959808  	0.039615 
3064.888624  	0.040043 
3066.817440  	0.040502 
3068.746256  	0.040759 
3070.675072  	0.040949 
3072.603888  	0.041446 
3074.532704  	0.042037 
3076.461520  	0.042499 
3078.390336  	0.042727 
3080.319152  	0.043069 
3082.247968  	0.043508 
3084.176784  	0.043946 
3086.105600  	0.044204 
3088.034416  	0.044404 
3089.963232  	0.044787 
3091.892048  	0.045205 
3093.820864  	0.045441 
3095.749680  	0.045728 
3097.678496  	0.045980 
3099.607312  	0.046326 
3101.536128  	0.046660 
3103.464944  	0.047063 
3105.393760  	0.047516 
3107.322576  	0.047865 
3109.251392  	0.048251 
3111.180208  	0.048516 
3113.109024  	0.048741 
3115.037840  	0.048959 
3116.966656  	0.049307 
3118.895472  	0.049690 
3120.824288  	0.049786 
3122.753104  	0.050012 
3124.681920  	0.050323 
3126.610736  	0.050392 
3128.539552  	0.050537 
3130.468368  	0.050798 
3132.397184  	0.050980 
3134.326000  	0.051198 
3136.254816  	0.051520 
3138.183632  	0.051757 
3140.112448  	0.051877 
3142.041264  	0.052118 
3143.970080  	0.052335 
3145.898896  	0.052449 
3147.827712  	0.052578 
3149.756528  	0.053033 
3151.685344  	0.053596 
3153.614160  	0.053866 
3155.542976  	0.053912 
3157.471792  	0.054052 
3159.400608  	0.054660 
3161.329424  	0.055144 
3163.258240  	0.055356 
3165.187056  	0.055602 
3167.115872  	0.055787 
3169.044688  	0.055925 
3170.973504  	0.055984 
3172.902320  	0.056132 
3174.831136  	0.056332 
3176.759952  	0.056561 
3178.688768  	0.056907 
3180.617584  	0.057102 
3182.546400  	0.056912 
3184.475216  	0.057055 
3186.404032  	0.057255 
3188.332848  	0.057295 
3190.261664  	0.057507 
3192.190480  	0.057582 
3194.119296  	0.057415 
3196.048112  	0.057418 
3197.976928  	0.057763 
3199.905744  	0.057699 
3201.834560  	0.057610 
3203.763376  	0.057677 
3205.692192  	0.057659 
3207.621008  	0.057548 
3209.549824  	0.057388 
3211.478640  	0.057230 
3213.407456  	0.057083 
3215.336272  	0.057069 
3217.265088  	0.056944 
3219.193904  	0.056548 
3221.122720  	0.056185 
3223.051536  	0.056066 
3224.980352  	0.055942 
3226.909168  	0.055718 
3228.837984  	0.055544 
3230.766800  	0.055536 
3232.695616  	0.055600 
3234.624432  	0.055515 
3236.553248  	0.055382 
3238.482064  	0.055359 
3240.410880  	0.055407 
3242.339696  	0.055428 
3244.268512  	0.055324 
3246.197328  	0.055216 
3248.126144  	0.055219 
3250.054960  	0.055213 
3251.983776  	0.055318 
3253.912592  	0.055406 
3255.841408  	0.055381 
3257.770224  	0.055314 
3259.699040  	0.055518 
3261.627856  	0.055853 
3263.556672  	0.055909 
3265.485488  	0.055900 
3267.414304  	0.056110 
3269.343120  	0.056345 
3271.271936  	0.056525 
3273.200752  	0.056586 
3275.129568  	0.056727 
3277.058384  	0.056831 
3278.987200  	0.057017 
3280.916016  	0.057150 
3282.844832  	0.057100 
3284.773648  	0.057161 
3286.702464  	0.057415 
3288.631280  	0.057606 
3290.560096  	0.057720 
3292.488912  	0.057880 
3294.417728  	0.057965 
3296.346544  	0.058184 
3298.275360  	0.058438 
3300.204176  	0.058656 
3302.132992  	0.058829 
3304.061808  	0.059147 
3305.990624  	0.059495 
3307.919440  	0.059591 
3309.848256  	0.059622 
3311.777072  	0.059497 
3313.705888  	0.059801 
3315.634704  	0.060348 
3317.563520  	0.060656 
3319.492336  	0.060592 
3321.421152  	0.060717 
3323.349968  	0.061034 
3325.278784  	0.061197 
3327.207600  	0.061217 
3329.136416  	0.061271 
3331.065232  	0.061287 
3332.994048  	0.061468 
3334.922864  	0.061578 
3336.851680  	0.061499 
3338.780496  	0.061218 
3340.709312  	0.060998 
3342.638128  	0.060975 
3344.566944  	0.060889 
3346.495760  	0.060848 
3348.424576  	0.060864 
3350.353392  	0.060739 
3352.282208  	0.060407 
3354.211024  	0.060199 
3356.139840  	0.060139 
3358.068656  	0.059885 
3359.997472  	0.059566 
3361.926288  	0.059330 
3363.855104  	0.058995 
3365.783920  	0.058791 
3367.712736  	0.058649 
3369.641552  	0.058163 
3371.570368  	0.057747 
3373.499184  	0.057453 
3375.428000  	0.057081 
3377.356816  	0.056851 
3379.285632  	0.056651 
3381.214448  	0.056533 
3383.143264  	0.056182 
3385.072080  	0.055951 
3387.000896  	0.055586 
3388.929712  	0.055273 
3390.858528  	0.055096 
3392.787344  	0.054883 
3394.716160  	0.054399 
3396.644976  	0.053952 
3398.573792  	0.053628 
3400.502608  	0.053282 
3402.431424  	0.052832 
3404.360240  	0.052498 
3406.289056  	0.052307 
3408.217872  	0.052075 
3410.146688  	0.051670 
3412.075504  	0.051557 
3414.004320  	0.051394 
3415.933136  	0.050866 
3417.861952  	0.050506 
3419.790768  	0.050425 
3421.719584  	0.050148 
3423.648400  	0.049509 
3425.577216  	0.049233 
3427.506032  	0.049125 
3429.434848  	0.048622 
3431.363664  	0.048175 
3433.292480  	0.047913 
3435.221296  	0.047776 
3437.150112  	0.047453 
3439.078928  	0.046908 
3441.007744  	0.046533 
3442.936560  	0.046607 
3444.865376  	0.046306 
3446.794192  	0.045639 
3448.723008  	0.045141 
3450.651824  	0.044672 
3452.580640  	0.044033 
3454.509456  	0.043515 
3456.438272  	0.043189 
3458.367088  	0.042990 
3460.295904  	0.042793 
3462.224720  	0.042296 
3464.153536  	0.041715 
3466.082352  	0.041385 
3468.011168  	0.040959 
3469.939984  	0.040340 
3471.868800  	0.039661 
3473.797616  	0.039481 
3475.726432  	0.039156 
3477.655248  	0.038540 
3479.584064  	0.038264 
3481.512880  	0.037999 
3483.441696  	0.037271 
3485.370512  	0.036424 
3487.299328  	0.036131 
3489.228144  	0.035771 
3491.156960  	0.034990 
3493.085776  	0.034507 
3495.014592  	0.034246 
3496.943408  	0.033991 
3498.872224  	0.033580 
3500.801040  	0.033436 
3502.729856  	0.033288 
3504.658672  	0.032604 
3506.587488  	0.031628 
3508.516304  	0.031384 
3510.445120  	0.031285 
3512.373936  	0.030879 
3514.302752  	0.030339 
3516.231568  	0.029952 
3518.160384  	0.029691 
3520.089200  	0.029455 
3522.018016  	0.029431 
3523.946832  	0.029575 
3525.875648  	0.029193 
3527.804464  	0.028366 
3529.733280  	0.027727 
3531.662096  	0.027325 
3533.590912  	0.026918 
3535.519728  	0.026828 
3537.448544  	0.026564 
3539.377360  	0.025886 
3541.306176  	0.025550 
3543.234992  	0.025568 
3545.163808  	0.025998 
3547.092624  	0.025588 
3549.021440  	0.024311 
3550.950256  	0.023871 
3552.879072  	0.023868 
3554.807888  	0.023351 
3556.736704  	0.022735 
3558.665520  	0.022521 
3560.594336  	0.022715 
3562.523152  	0.022389 
3564.451968  	0.022393 
3566.380784  	0.023355 
3568.309600  	0.022835 
3570.238416  	0.021016 
3572.167232  	0.019756 
3574.096048  	0.019225 
3576.024864  	0.019010 
3577.953680  	0.018600 
3579.882496  	0.018245 
3581.811312  	0.017868 
3583.740128  	0.017502 
3585.668944  	0.017851 
3587.597760  	0.018658 
3589.526576  	0.017384 
3591.455392  	0.015520 
3593.384208  	0.015307 
3595.313024  	0.015143 
3597.241840  	0.014364 
3599.170656  	0.013403 
3601.099472  	0.012845 
3603.028288  	0.012517 
3604.957104  	0.012346 
3606.885920  	0.012333 
3608.814736  	0.012294 
3610.743552  	0.011465 
3612.672368  	0.010917 
3614.601184  	0.010290 
3616.530000  	0.009070 
3618.458816  	0.008675 
3620.387632  	0.008203 
3622.316448  	0.006894 
3624.245264  	0.005946 
3626.174080  	0.005418 
3628.102896  	0.005262 
3630.031712  	0.005493 
3631.960528  	0.004369 
3633.889344  	0.003064 
3635.818160  	0.001877 
3637.746976  	0.001061 
3639.675792  	0.000856 
3641.604608  	0.000492 
3643.533424  	-0.000461 
3645.462240  	-0.001538 
3647.391056  	-0.002029 
3649.319872  	-0.002737 
3651.248688  	-0.002976 
3653.177504  	-0.004270 
3655.106320  	-0.005967 
3657.035136  	-0.006683 
3658.963952  	-0.007451 
3660.892768  	-0.008457 
3662.821584  	-0.009001 
3664.750400  	-0.009054 
3666.679216  	-0.009386 
3668.608032  	-0.010031 
3670.536848  	-0.009904 
3672.465664  	-0.009919 
3674.394480  	-0.011573 
3676.323296  	-0.010732 
3678.252112  	-0.008906 
3680.180928  	-0.008498 
3682.109744  	-0.009005 
3684.038560  	-0.009667 
3685.967376  	-0.010393 
3687.896192  	-0.011221 
3689.825008  	-0.010429 
3691.753824  	-0.009248 
3693.682640  	-0.008819 
3695.611456  	-0.008575 
3697.540272  	-0.007876 
3699.469088  	-0.007389 
3701.397904  	-0.006323 
3703.326720  	-0.005412 
3705.255536  	-0.005370 
3707.184352  	-0.005566 
3709.113168  	-0.005699 
3711.041984  	-0.004892 
3712.970800  	-0.003479 
3714.899616  	-0.002940 
3716.828432  	-0.003303 
3718.757248  	-0.003607 
3720.686064  	-0.003784 
3722.614880  	-0.003078 
3724.543696  	-0.002606 
3726.472512  	-0.002554 
3728.401328  	-0.003214 
3730.330144  	-0.004642 
3732.258960  	-0.004991 
3734.187776  	-0.002825 
3736.116592  	-0.000837 
3738.045408  	-0.001935 
3739.974224  	-0.002885 
3741.903040  	-0.003456 
3743.831856  	-0.003382 
3745.760672  	-0.001965 
3747.689488  	-0.003295 
3749.618304  	-0.004473 
3751.547120  	-0.003612 
3753.475936  	-0.002329 
3755.404752  	-0.002692 
3757.333568  	-0.003123 
3759.262384  	-0.003068 
3761.191200  	-0.002807 
3763.120016  	-0.002970 
3765.048832  	-0.002984 
3766.977648  	-0.002968 
3768.906464  	-0.003305 
3770.835280  	-0.002628 
3772.764096  	-0.002549 
3774.692912  	-0.002953 
3776.621728  	-0.003517 
3778.550544  	-0.003754 
3780.479360  	-0.003097 
3782.408176  	-0.003114 
3784.336992  	-0.003370 
3786.265808  	-0.003315 
3788.194624  	-0.003362 
3790.123440  	-0.003436 
3792.052256  	-0.003427 
3793.981072  	-0.003529 
3795.909888  	-0.003495 
3797.838704  	-0.003216 
3799.767520  	-0.004207 
3801.696336  	-0.003887 
3803.625152  	-0.003181 
3805.553968  	-0.004172 
3807.482784  	-0.003630 
3809.411600  	-0.002925 
3811.340416  	-0.003087 
3813.269232  	-0.003767 
3815.198048  	-0.004549 
3817.126864  	-0.003625 
3819.055680  	-0.003928 
3820.984496  	-0.003950 
3822.913312  	-0.002574 
3824.842128  	-0.003109 
3826.770944  	-0.003408 
3828.699760  	-0.003432 
3830.628576  	-0.003896 
3832.557392  	-0.003740 
3834.486208  	-0.003953 
3836.415024  	-0.004352 
3838.343840  	-0.003723 
3840.272656  	-0.002964 
3842.201472  	-0.003064 
3844.130288  	-0.003123 
3846.059104  	-0.003114 
3847.987920  	-0.003493 
3849.916736  	-0.004048 
3851.845552  	-0.004793 
3853.774368  	-0.003267 
3855.703184  	-0.002136 
3857.632000  	-0.002771 
3859.560816  	-0.003526 
3861.489632  	-0.003597 
3863.418448  	-0.003138 
3865.347264  	-0.002602 
3867.276080  	-0.003089 
3869.204896  	-0.003280 
3871.133712  	-0.002128 
3873.062528  	-0.002748 
3874.991344  	-0.002763 
3876.920160  	-0.003321 
3878.848976  	-0.003567 
3880.777792  	-0.002379 
3882.706608  	-0.002231 
3884.635424  	-0.002741 
3886.564240  	-0.002274 
3888.493056  	-0.003059 
3890.421872  	-0.003274 
3892.350688  	-0.002426 
3894.279504  	-0.002749 
3896.208320  	-0.003162 
3898.137136  	-0.002852 
3900.065952  	-0.002153 
3901.994768  	-0.001819 
3903.923584  	-0.001506 
3905.852400  	-0.001694 
3907.781216  	-0.002726 
3909.710032  	-0.003398 
3911.638848  	-0.003420 
3913.567664  	-0.003196 
3915.496480  	-0.002504 
3917.425296  	-0.001616 
3919.354112  	-0.001889 
3921.282928  	-0.002377 
3923.211744  	-0.002470 
3925.140560  	-0.002208 
3927.069376  	-0.002795 
3928.998192  	-0.003016 
3930.927008  	-0.002047 
3932.855824  	-0.001396 
3934.784640  	-0.002163 
3936.713456  	-0.002736 
3938.642272  	-0.002865 
3940.571088  	-0.002763 
3942.499904  	-0.001785 
3944.428720  	-0.001857 
3946.357536  	-0.002482 
3948.286352  	-0.002349 
3950.215168  	-0.002640 
3952.143984  	-0.003090 
3954.072800  	-0.003200 
3956.001616  	-0.003101 
3957.930432  	-0.002963 
3959.859248  	-0.002824 
3961.788064  	-0.002711 
3963.716880  	-0.002987 
3965.645696  	-0.003262 
3967.574512  	-0.002994 
3969.503328  	-0.002882 
3971.432144  	-0.002993 
3973.360960  	-0.003080 
3975.289776  	-0.002824 
3977.218592  	-0.002881 
3979.147408  	-0.003034 
3981.076224  	-0.003125 
3983.005040  	-0.003232 
3984.933856  	-0.003178 
3986.862672  	-0.003030 
3988.791488  	-0.002942 
3990.720304  	-0.002822 
3992.649120  	-0.002914 
3994.577936  	-0.003051 
3996.506752  	-0.003163 
3998.435568  	-0.003180 
4000.364384  	-0.003135 