##TITLE=No Description
##DATA TYPE=INFRARED SPECTRUM
##XUNITS=1/CM
##YUNITS=Abs
399.264912  	0.599980 
401.193728  	0.588889 
403.122544  	0.601749 
405.051360  	0.605411 
406.980176  	0.592939 
408.908992  	0.584155 
410.837808  	0.581479 
412.766624  	0.579703 
414.695440  	0.590150 
416.624256  	0.575361 
418.553072  	0.562312 
420.481888  	0.561479 
422.410704  	0.568168 
424.339520  	0.554948 
426.268336  	0.550311 
428.197152  	0.554279 
430.125968  	0.561551 
432.054784  	0.553686 
433.983600  	0.547274 
435.912416  	0.539954 
437.841232  	0.538970 
439.770048  	0.537676 
441.698864  	0.539688 
443.627680  	0.532476 
445.556496  	0.529586 
447.485312  	0.527243 
449.414128  	0.531785 
451.342944  	0.532176 
453.271760  	0.529634 
455.200576  	0.520259 
457.129392  	0.517281 
459.058208  	0.518633 
460.987024  	0.524570 
462.915840  	0.524019 
464.844656  	0.524306 
466.773472  	0.520649 
468.702288  	0.520113 
470.631104  	0.519094 
472.559920  	0.520092 
474.488736  	0.518078 
476.417552  	0.517071 
478.346368  	0.514630 
480.275184  	0.517411 
482.204000  	0.515038 
484.132816  	0.517970 
486.061632  	0.516475 
487.990448  	0.516640 
489.919264  	0.514699 
491.848080  	0.511802 
493.776896  	0.510756 
495.705712  	0.511109 
497.634528  	0.507617 
499.563344  	0.509203 
501.492160  	0.506125 
503.420976  	0.503184 
505.349792  	0.501282 
507.278608  	0.501261 
509.207424  	0.501424 
511.136240  	0.501876 
513.065056  	0.502039 
514.993872  	0.505591 
516.922688  	0.502947 
518.851504  	0.502293 
520.780320  	0.501751 
522.709136  	0.504617 
524.637952  	0.502619 
526.566768  	0.499310 
528.495584  	0.497364 
530.424400  	0.496250 
532.353216  	0.491781 
534.282032  	0.487959 
536.210848  	0.485052 
538.139664  	0.484088 
540.068480  	0.478206 
541.997296  	0.472816 
543.926112  	0.467598 
545.854928  	0.464765 
547.783744  	0.461391 
549.712560  	0.458789 
551.641376  	0.453745 
553.570192  	0.451725 
555.499008  	0.448642 
557.427824  	0.445726 
559.356640  	0.441902 
561.285456  	0.438693 
563.214272  	0.434774 
565.143088  	0.431176 
567.071904  	0.427066 
569.000720  	0.423338 
570.929536  	0.419267 
572.858352  	0.416909 
574.787168  	0.414887 
576.715984  	0.411926 
578.644800  	0.407865 
580.573616  	0.404642 
582.502432  	0.400606 
584.431248  	0.398205 
586.360064  	0.395709 
588.288880  	0.393577 
590.217696  	0.391047 
592.146512  	0.388800 
594.075328  	0.386371 
596.004144  	0.384408 
597.932960  	0.382719 
599.861776  	0.381447 
601.790592  	0.379695 
603.719408  	0.378474 
605.648224  	0.376810 
607.577040  	0.375912 
609.505856  	0.374928 
611.434672  	0.373768 
613.363488  	0.371518 
615.292304  	0.369478 
617.221120  	0.367238 
619.149936  	0.366174 
621.078752  	0.363990 
623.007568  	0.361916 
624.936384  	0.360352 
626.865200  	0.359534 
628.794016  	0.357687 
630.722832  	0.355792 
632.651648  	0.354804 
634.580464  	0.354990 
636.509280  	0.355129 
638.438096  	0.354333 
640.366912  	0.353282 
642.295728  	0.351886 
644.224544  	0.349285 
646.153360  	0.346469 
648.082176  	0.343672 
650.010992  	0.340925 
651.939808  	0.337086 
653.868624  	0.333321 
655.797440  	0.329905 
657.726256  	0.327173 
659.655072  	0.323305 
661.583888  	0.319650 
663.512704  	0.316053 
665.441520  	0.313095 
667.370336  	0.308882 
669.299152  	0.303369 
671.227968  	0.301017 
673.156784  	0.299274 
675.085600  	0.297426 
677.014416  	0.295932 
678.943232  	0.293850 
680.872048  	0.291514 
682.800864  	0.289767 
684.729680  	0.288188 
686.658496  	0.285740 
688.587312  	0.283649 
690.516128  	0.281884 
692.444944  	0.280412 
694.373760  	0.278749 
696.302576  	0.276900 
698.231392  	0.274335 
700.160208  	0.271919 
702.089024  	0.269546 
704.017840  	0.268063 
705.946656  	0.265546 
707.875472  	0.262807 
709.804288  	0.260614 
711.733104  	0.259049 
713.661920  	0.257280 
715.590736  	0.256123 
717.519552  	0.255413 
719.448368  	0.255782 
721.377184  	0.256318 
723.306000  	0.256410 
725.234816  	0.255975 
727.163632  	0.254994 
729.092448  	0.253036 
731.021264  	0.250620 
732.950080  	0.247648 
734.878896  	0.244645 
736.807712  	0.242517 
738.736528  	0.240874 
740.665344  	0.238980 
742.594160  	0.237305 
744.522976  	0.235659 
746.451792  	0.234363 
748.380608  	0.233459 
750.309424  	0.232615 
752.238240  	0.231844 
754.167056  	0.231464 
756.095872  	0.230242 
758.024688  	0.228918 
759.953504  	0.228298 
761.882320  	0.228277 
763.811136  	0.228343 
765.739952  	0.227830 
767.668768  	0.226423 
769.597584  	0.224840 
771.526400  	0.224378 
773.455216  	0.225668 
775.384032  	0.227798 
777.312848  	0.230924 
779.241664  	0.234289 
781.170480  	0.234965 
783.099296  	0.232126 
785.028112  	0.227248 
786.956928  	0.221592 
788.885744  	0.216871 
790.814560  	0.213358 
792.743376  	0.210991 
794.672192  	0.209366 
796.601008  	0.208631 
798.529824  	0.206830 
800.458640  	0.203629 
802.387456  	0.200204 
804.316272  	0.198304 
806.245088  	0.197479 
808.173904  	0.196757 
810.102720  	0.196500 
812.031536  	0.196292 
813.960352  	0.195917 
815.889168  	0.195729 
817.817984  	0.195511 
819.746800  	0.195316 
821.675616  	0.194930 
823.604432  	0.194083 
825.533248  	0.192874 
827.462064  	0.191686 
829.390880  	0.190717 
831.319696  	0.189456 
833.248512  	0.187612 
835.177328  	0.185576 
837.106144  	0.183175 
839.034960  	0.180701 
840.963776  	0.178067 
842.892592  	0.175647 
844.821408  	0.172984 
846.750224  	0.170267 
848.679040  	0.168288 
850.607856  	0.166781 
852.536672  	0.165524 
854.465488  	0.164459 
856.394304  	0.163429 
858.323120  	0.162338 
860.251936  	0.161127 
862.180752  	0.159879 
864.109568  	0.158618 
866.038384  	0.157379 
867.967200  	0.155906 
869.896016  	0.154767 
871.824832  	0.153657 
873.753648  	0.152629 
875.682464  	0.152104 
877.611280  	0.153101 
879.540096  	0.154183 
881.468912  	0.154045 
883.397728  	0.154232 
885.326544  	0.154039 
887.255360  	0.153650 
889.184176  	0.153671 
891.112992  	0.153551 
893.041808  	0.151718 
894.970624  	0.148984 
896.899440  	0.146231 
898.828256  	0.142979 
900.757072  	0.139470 
902.685888  	0.136212 
904.614704  	0.134067 
906.543520  	0.133032 
908.472336  	0.133183 
910.401152  	0.134368 
912.329968  	0.136191 
914.258784  	0.138354 
916.187600  	0.140417 
918.116416  	0.141871 
920.045232  	0.142199 
921.974048  	0.141489 
923.902864  	0.140524 
925.831680  	0.139304 
927.760496  	0.138115 
929.689312  	0.137241 
931.618128  	0.136954 
933.546944  	0.136957 
935.475760  	0.136913 
937.404576  	0.136933 
939.333392  	0.137344 
941.262208  	0.138373 
943.191024  	0.140335 
945.119840  	0.143406 
947.048656  	0.147572 
948.977472  	0.152907 
950.906288  	0.159138 
952.835104  	0.165841 
954.763920  	0.172400 
956.692736  	0.178510 
958.621552  	0.183925 
960.550368  	0.187487 
962.479184  	0.188869 
964.408000  	0.187631 
966.336816  	0.184057 
968.265632  	0.177850 
970.194448  	0.170286 
972.123264  	0.161702 
974.052080  	0.152462 
975.980896  	0.143247 
977.909712  	0.134836 
979.838528  	0.127757 
981.767344  	0.122028 
983.696160  	0.118081 
985.624976  	0.116101 
987.553792  	0.116350 
989.482608  	0.118459 
991.411424  	0.122096 
993.340240  	0.127287 
995.269056  	0.133717 
997.197872  	0.140677 
999.126688  	0.147516 
1001.055504  	0.154620 
1002.984320  	0.161729 
1004.913136  	0.168747 
1006.841952  	0.175067 
1008.770768  	0.180756 
1010.699584  	0.185418 
1012.628400  	0.189009 
1014.557216  	0.191674 
1016.486032  	0.193720 
1018.414848  	0.195199 
1020.343664  	0.196348 
1022.272480  	0.197198 
1024.201296  	0.198627 
1026.130112  	0.202158 
1028.058928  	0.204602 
1029.987744  	0.203494 
1031.916560  	0.205724 
1033.845376  	0.210826 
1035.774192  	0.217445 
1037.703008  	0.223946 
1039.631824  	0.230092 
1041.560640  	0.238117 
1043.489456  	0.248772 
1045.418272  	0.260850 
1047.347088  	0.274428 
1049.275904  	0.288283 
1051.204720  	0.301687 
1053.133536  	0.312468 
1055.062352  	0.321551 
1056.991168  	0.328064 
1058.919984  	0.329152 
1060.848800  	0.327044 
1062.777616  	0.327845 
1064.706432  	0.329705 
1066.635248  	0.328061 
1068.564064  	0.319504 
1070.492880  	0.312893 
1072.421696  	0.308353 
1074.350512  	0.304226 
1076.279328  	0.299888 
1078.208144  	0.295989 
1080.136960  	0.291885 
1082.065776  	0.287372 
1083.994592  	0.282092 
1085.923408  	0.277208 
1087.852224  	0.271673 
1089.781040  	0.265350 
1091.709856  	0.256545 
1093.638672  	0.247816 
1095.567488  	0.238663 
1097.496304  	0.229482 
1099.425120  	0.219526 
1101.353936  	0.209410 
1103.282752  	0.198935 
1105.211568  	0.188048 
1107.140384  	0.176900 
1109.069200  	0.166003 
1110.998016  	0.155840 
1112.926832  	0.146486 
1114.855648  	0.137474 
1116.784464  	0.128750 
1118.713280  	0.121038 
1120.642096  	0.113978 
1122.570912  	0.107376 
1124.499728  	0.101469 
1126.428544  	0.095810 
1128.357360  	0.090677 
1130.286176  	0.086052 
1132.214992  	0.081976 
1134.143808  	0.078548 
1136.072624  	0.075435 
1138.001440  	0.072361 
1139.930256  	0.069431 
1141.859072  	0.066689 
1143.787888  	0.064022 
1145.716704  	0.062048 
1147.645520  	0.060569 
1149.574336  	0.059217 
1151.503152  	0.058224 
1153.431968  	0.057999 
1155.360784  	0.057938 
1157.289600  	0.058133 
1159.218416  	0.058892 
1161.147232  	0.060117 
1163.076048  	0.061161 
1165.004864  	0.062411 
1166.933680  	0.063829 
1168.862496  	0.065618 
1170.791312  	0.067709 
1172.720128  	0.069832 
1174.648944  	0.071789 
1176.577760  	0.074035 
1178.506576  	0.076519 
1180.435392  	0.078903 
1182.364208  	0.080991 
1184.293024  	0.083351 
1186.221840  	0.085896 
1188.150656  	0.088826 
1190.079472  	0.092314 
1192.008288  	0.096388 
1193.937104  	0.101101 
1195.865920  	0.106596 
1197.794736  	0.112413 
1199.723552  	0.118690 
1201.652368  	0.125496 
1203.581184  	0.132363 
1205.510000  	0.139245 
1207.438816  	0.146266 
1209.367632  	0.153121 
1211.296448  	0.159528 
1213.225264  	0.165504 
1215.154080  	0.170813 
1217.082896  	0.175734 
1219.011712  	0.179751 
1220.940528  	0.183206 
1222.869344  	0.186000 
1224.798160  	0.188184 
1226.726976  	0.189874 
1228.655792  	0.191217 
1230.584608  	0.191134 
1232.513424  	0.190016 
1234.442240  	0.187455 
1236.371056  	0.184183 
1238.299872  	0.180482 
1240.228688  	0.177898 
1242.157504  	0.173470 
1244.086320  	0.166758 
1246.015136  	0.160544 
1247.943952  	0.155307 
1249.872768  	0.149646 
1251.801584  	0.142774 
1253.730400  	0.135956 
1255.659216  	0.129566 
1257.588032  	0.123313 
1259.516848  	0.117024 
1261.445664  	0.111129 
1263.374480  	0.105720 
1265.303296  	0.100734 
1267.232112  	0.096226 
1269.160928  	0.092623 
1271.089744  	0.090056 
1273.018560  	0.088573 
1274.947376  	0.087742 
1276.876192  	0.087023 
1278.805008  	0.085917 
1280.733824  	0.084196 
1282.662640  	0.081584 
1284.591456  	0.078167 
1286.520272  	0.074696 
1288.449088  	0.071937 
1290.377904  	0.069905 
1292.306720  	0.068233 
1294.235536  	0.066303 
1296.164352  	0.063606 
1298.093168  	0.060370 
1300.021984  	0.057188 
1301.950800  	0.054173 
1303.879616  	0.051633 
1305.808432  	0.049528 
1307.737248  	0.047704 
1309.666064  	0.046056 
1311.594880  	0.044985 
1313.523696  	0.044292 
1315.452512  	0.043970 
1317.381328  	0.044013 
1319.310144  	0.044538 
1321.238960  	0.045328 
1323.167776  	0.046290 
1325.096592  	0.046873 
1327.025408  	0.046989 
1328.954224  	0.046582 
1330.883040  	0.046064 
1332.811856  	0.045313 
1334.740672  	0.044423 
1336.669488  	0.043419 
1338.598304  	0.042613 
1340.527120  	0.042193 
1342.455936  	0.042204 
1344.384752  	0.042312 
1346.313568  	0.042876 
1348.242384  	0.043967 
1350.171200  	0.045670 
1352.100016  	0.047616 
1354.028832  	0.049668 
1355.957648  	0.051941 
1357.886464  	0.054197 
1359.815280  	0.055954 
1361.744096  	0.057562 
1363.672912  	0.059904 
1365.601728  	0.061987 
1367.530544  	0.063279 
1369.459360  	0.064461 
1371.388176  	0.064852 
1373.316992  	0.064306 
1375.245808  	0.063819 
1377.174624  	0.063391 
1379.103440  	0.062386 
1381.032256  	0.061284 
1382.961072  	0.060015 
1384.889888  	0.058493 
1386.818704  	0.056349 
1388.747520  	0.054754 
1390.676336  	0.054683 
1392.605152  	0.056458 
1394.533968  	0.056278 
1396.462784  	0.052940 
1398.391600  	0.052096 
1400.320416  	0.053949 
1402.249232  	0.055822 
1404.178048  	0.057300 
1406.106864  	0.058984 
1408.035680  	0.060420 
1409.964496  	0.061302 
1411.893312  	0.062028 
1413.822128  	0.062342 
1415.750944  	0.061996 
1417.679760  	0.060752 
1419.608576  	0.059714 
1421.537392  	0.059326 
1423.466208  	0.058058 
1425.395024  	0.056512 
1427.323840  	0.054750 
1429.252656  	0.052438 
1431.181472  	0.051008 
1433.110288  	0.050643 
1435.039104  	0.050336 
1436.967920  	0.050602 
1438.896736  	0.051780 
1440.825552  	0.052376 
1442.754368  	0.052902 
1444.683184  	0.052912 
1446.612000  	0.052773 
1448.540816  	0.053428 
1450.469632  	0.054153 
1452.398448  	0.054018 
1454.327264  	0.053424 
1456.256080  	0.051561 
1458.184896  	0.051358 
1460.113712  	0.052644 
1462.042528  	0.053267 
1463.971344  	0.053131 
1465.900160  	0.054774 
1467.828976  	0.056852 
1469.757792  	0.058733 
1471.686608  	0.060658 
1473.615424  	0.065219 
1475.544240  	0.069123 
1477.473056  	0.072387 
1479.401872  	0.073944 
1481.330688  	0.074648 
1483.259504  	0.074819 
1485.188320  	0.074036 
1487.117136  	0.072026 
1489.045952  	0.069721 
1490.974768  	0.067401 
1492.903584  	0.065345 
1494.832400  	0.061843 
1496.761216  	0.057443 
1498.690032  	0.054075 
1500.618848  	0.051774 
1502.547664  	0.049460 
1504.476480  	0.046423 
1506.405296  	0.042258 
1508.334112  	0.041725 
1510.262928  	0.042022 
1512.191744  	0.041512 
1514.120560  	0.040557 
1516.049376  	0.039704 
1517.978192  	0.040187 
1519.907008  	0.040853 
1521.835824  	0.042643 
1523.764640  	0.045869 
1525.693456  	0.048246 
1527.622272  	0.050480 
1529.551088  	0.052035 
1531.479904  	0.052051 
1533.408720  	0.050929 
1535.337536  	0.050389 
1537.266352  	0.048171 
1539.195168  	0.043747 
1541.123984  	0.041133 
1543.052800  	0.041184 
1544.981616  	0.040742 
1546.910432  	0.040566 
1548.839248  	0.039732 
1550.768064  	0.039618 
1552.696880  	0.039502 
1554.625696  	0.039677 
1556.554512  	0.039100 
1558.483328  	0.038140 
1560.412144  	0.043276 
1562.340960  	0.046892 
1564.269776  	0.048934 
1566.198592  	0.052379 
1568.127408  	0.054972 
1570.056224  	0.059422 
1571.985040  	0.063883 
1573.913856  	0.065982 
1575.842672  	0.066947 
1577.771488  	0.069432 
1579.700304  	0.070025 
1581.629120  	0.069876 
1583.557936  	0.069923 
1585.486752  	0.071268 
1587.415568  	0.073593 
1589.344384  	0.077205 
1591.273200  	0.081589 
1593.202016  	0.086756 
1595.130832  	0.091782 
1597.059648  	0.096855 
1598.988464  	0.100793 
1600.917280  	0.104021 
1602.846096  	0.105904 
1604.774912  	0.107078 
1606.703728  	0.106825 
1608.632544  	0.106344 
1610.561360  	0.105545 
1612.490176  	0.105307 
1614.418992  	0.104582 
1616.347808  	0.105060 
1618.276624  	0.108114 
1620.205440  	0.111781 
1622.134256  	0.114976 
1624.063072  	0.121263 
1625.991888  	0.127436 
1627.920704  	0.134163 
1629.849520  	0.141798 
1631.778336  	0.148672 
1633.707152  	0.153333 
1635.635968  	0.159606 
1637.564784  	0.167552 
1639.493600  	0.172902 
1641.422416  	0.176813 
1643.351232  	0.179490 
1645.280048  	0.179836 
1647.208864  	0.180715 
1649.137680  	0.182093 
1651.066496  	0.181273 
1652.995312  	0.177560 
1654.924128  	0.178628 
1656.852944  	0.178346 
1658.781760  	0.176904 
1660.710576  	0.174620 
1662.639392  	0.172299 
1664.568208  	0.170762 
1666.497024  	0.169088 
1668.425840  	0.166170 
1670.354656  	0.164164 
1672.283472  	0.163274 
1674.212288  	0.162149 
1676.141104  	0.161621 
1678.069920  	0.162058 
1679.998736  	0.161802 
1681.927552  	0.161164 
1683.856368  	0.159591 
1685.785184  	0.161403 
1687.714000  	0.161571 
1689.642816  	0.160656 
1691.571632  	0.159344 
1693.500448  	0.157214 
1695.429264  	0.153093 
1697.358080  	0.149848 
1699.286896  	0.146394 
1701.215712  	0.141887 
1703.144528  	0.139248 
1705.073344  	0.134617 
1707.002160  	0.129749 
1708.930976  	0.125458 
1710.859792  	0.120362 
1712.788608  	0.114441 
1714.717424  	0.107566 
1716.646240  	0.100169 
1718.575056  	0.093114 
1720.503872  	0.087635 
1722.432688  	0.081960 
1724.361504  	0.075203 
1726.290320  	0.069248 
1728.219136  	0.063211 
1730.147952  	0.057580 
1732.076768  	0.052328 
1734.005584  	0.046704 
1735.934400  	0.042299 
1737.863216  	0.039167 
1739.792032  	0.034579 
1741.720848  	0.031587 
1743.649664  	0.028662 
1745.578480  	0.026157 
1747.507296  	0.023319 
1749.436112  	0.021320 
1751.364928  	0.020167 
1753.293744  	0.019848 
1755.222560  	0.018567 
1757.151376  	0.017699 
1759.080192  	0.016867 
1761.009008  	0.016062 
1762.937824  	0.015603 
1764.866640  	0.015692 
1766.795456  	0.014720 
1768.724272  	0.014020 
1770.653088  	0.012591 
1772.581904  	0.012313 
1774.510720  	0.012970 
1776.439536  	0.013236 
1778.368352  	0.012938 
1780.297168  	0.012808 
1782.225984  	0.012674 
1784.154800  	0.012564 
1786.083616  	0.012537 
1788.012432  	0.012471 
1789.941248  	0.011478 
1791.870064  	0.011018 
1793.798880  	0.011245 
1795.727696  	0.011626 
1797.656512  	0.011242 
1799.585328  	0.010849 
1801.514144  	0.010666 
1803.442960  	0.010874 
1805.371776  	0.010771 
1807.300592  	0.010662 
1809.229408  	0.009991 
1811.158224  	0.009933 
1813.087040  	0.009997 
1815.015856  	0.009910 
1816.944672  	0.009510 
1818.873488  	0.009900 
1820.802304  	0.010020 
1822.731120  	0.010048 
1824.659936  	0.009606 
1826.588752  	0.009769 
1828.517568  	0.009317 
1830.446384  	0.009600 
1832.375200  	0.010001 
1834.304016  	0.009995 
1836.232832  	0.009752 
1838.161648  	0.010025 
1840.090464  	0.009895 
1842.019280  	0.009204 
1843.948096  	0.008425 
1845.876912  	0.009167 
1847.805728  	0.009512 
1849.734544  	0.009855 
1851.663360  	0.009676 
1853.592176  	0.009667 
1855.520992  	0.009540 
1857.449808  	0.009920 
1859.378624  	0.009737 
1861.307440  	0.009659 
1863.236256  	0.009349 
1865.165072  	0.009183 
1867.093888  	0.008687 
1869.022704  	0.009093 
1870.951520  	0.009445 
1872.880336  	0.009739 
1874.809152  	0.009533 
1876.737968  	0.009641 
1878.666784  	0.009441 
1880.595600  	0.009566 
1882.524416  	0.009398 
1884.453232  	0.009194 
1886.382048  	0.009000 
1888.310864  	0.009082 
1890.239680  	0.009368 
1892.168496  	0.009920 
1894.097312  	0.009379 
1896.026128  	0.009359 
1897.954944  	0.009217 
1899.883760  	0.009252 
1901.812576  	0.009191 
1903.741392  	0.009479 
1905.670208  	0.009322 
1907.599024  	0.009312 
1909.527840  	0.009123 
1911.456656  	0.009550 
1913.385472  	0.009775 
1915.314288  	0.009903 
1917.243104  	0.009352 
1919.171920  	0.009496 
1921.100736  	0.009500 
1923.029552  	0.009782 
1924.958368  	0.009572 
1926.887184  	0.009627 
1928.816000  	0.009290 
1930.744816  	0.009143 
1932.673632  	0.009065 
1934.602448  	0.009659 
1936.531264  	0.009832 
1938.460080  	0.009764 
1940.388896  	0.009161 
1942.317712  	0.009246 
1944.246528  	0.009152 
1946.175344  	0.009976 
1948.104160  	0.009197 
1950.032976  	0.009089 
1951.961792  	0.009461 
1953.890608  	0.009493 
1955.819424  	0.008924 
1957.748240  	0.008879 
1959.677056  	0.008928 
1961.605872  	0.009163 
1963.534688  	0.008826 
1965.463504  	0.009985 
1967.392320  	0.008976 
1969.321136  	0.007731 
1971.249952  	0.008567 
1973.178768  	0.010599 
1975.107584  	0.009028 
1977.036400  	0.008815 
1978.965216  	0.011079 
1980.894032  	0.011123 
1982.822848  	0.009292 
1984.751664  	0.009979 
1986.680480  	0.010427 
1988.609296  	0.010281 
1990.538112  	0.009428 
1992.466928  	0.009667 
1994.395744  	0.009008 
1996.324560  	0.009202 
1998.253376  	0.009625 
2000.182192  	0.010033 
2002.111008  	0.009641 
2004.039824  	0.009229 
2005.968640  	0.007835 
2007.897456  	0.008967 
2009.826272  	0.009000 
2011.755088  	0.007859 
2013.683904  	0.008486 
2015.612720  	0.009928 
2017.541536  	0.009070 
2019.470352  	0.008919 
2021.399168  	0.008796 
2023.327984  	0.009813 
2025.256800  	0.009839 
2027.185616  	0.009549 
2029.114432  	0.008227 
2031.043248  	0.010267 
2032.972064  	0.011080 
2034.900880  	0.011078 
2036.829696  	0.010661 
2038.758512  	0.010967 
2040.687328  	0.010964 
2042.616144  	0.010489 
2044.544960  	0.010068 
2046.473776  	0.010703 
2048.402592  	0.010322 
2050.331408  	0.011327 
2052.260224  	0.010839 
2054.189040  	0.010170 
2056.117856  	0.009304 
2058.046672  	0.009528 
2059.975488  	0.009782 
2061.904304  	0.010317 
2063.833120  	0.011155 
2065.761936  	0.011243 
2067.690752  	0.010090 
2069.619568  	0.009776 
2071.548384  	0.008814 
2073.477200  	0.008739 
2075.406016  	0.009673 
2077.334832  	0.010334 
2079.263648  	0.009815 
2081.192464  	0.009700 
2083.121280  	0.010061 
2085.050096  	0.010588 
2086.978912  	0.010526 
2088.907728  	0.010445 
2090.836544  	0.009903 
2092.765360  	0.009418 
2094.694176  	0.009465 
2096.622992  	0.009989 
2098.551808  	0.009770 
2100.480624  	0.009909 
2102.409440  	0.010051 
2104.338256  	0.010554 
2106.267072  	0.010091 
2108.195888  	0.009995 
2110.124704  	0.010732 
2112.053520  	0.010915 
2113.982336  	0.010346 
2115.911152  	0.010662 
2117.839968  	0.010128 
2119.768784  	0.009644 
2121.697600  	0.009548 
2123.626416  	0.009456 
2125.555232  	0.008998 
2127.484048  	0.009345 
2129.412864  	0.009010 
2131.341680  	0.008224 
2133.270496  	0.008790 
2135.199312  	0.009570 
2137.128128  	0.009162 
2139.056944  	0.009216 
2140.985760  	0.008782 
2142.914576  	0.009387 
2144.843392  	0.009088 
2146.772208  	0.009331 
2148.701024  	0.009975 
2150.629840  	0.009663 
2152.558656  	0.008641 
2154.487472  	0.007905 
2156.416288  	0.006028 
2158.345104  	0.008289 
2160.273920  	0.012241 
2162.202736  	0.013373 
2164.131552  	0.011709 
2166.060368  	0.011900 
2167.989184  	0.011783 
2169.918000  	0.010990 
2171.846816  	0.009993 
2173.775632  	0.009790 
2175.704448  	0.010199 
2177.633264  	0.010844 
2179.562080  	0.010590 
2181.490896  	0.010453 
2183.419712  	0.010241 
2185.348528  	0.010886 
2187.277344  	0.010626 
2189.206160  	0.010730 
2191.134976  	0.011096 
2193.063792  	0.012084 
2194.992608  	0.012323 
2196.921424  	0.011692 
2198.850240  	0.011285 
2200.779056  	0.011074 
2202.707872  	0.011128 
2204.636688  	0.011390 
2206.565504  	0.011098 
2208.494320  	0.011407 
2210.423136  	0.010540 
2212.351952  	0.010454 
2214.280768  	0.010872 
2216.209584  	0.010462 
2218.138400  	0.009654 
2220.067216  	0.009771 
2221.996032  	0.010024 
2223.924848  	0.009811 
2225.853664  	0.010122 
2227.782480  	0.011235 
2229.711296  	0.011567 
2231.640112  	0.010973 
2233.568928  	0.010228 
2235.497744  	0.010541 
2237.426560  	0.010369 
2239.355376  	0.010558 
2241.284192  	0.010530 
2243.213008  	0.010400 
2245.141824  	0.010400 
2247.070640  	0.010316 
2248.999456  	0.010207 
2250.928272  	0.010782 
2252.857088  	0.010806 
2254.785904  	0.010330 
2256.714720  	0.010725 
2258.643536  	0.011554 
2260.572352  	0.011345 
2262.501168  	0.010999 
2264.429984  	0.011066 
2266.358800  	0.011508 
2268.287616  	0.011445 
2270.216432  	0.011522 
2272.145248  	0.011124 
2274.074064  	0.011267 
2276.002880  	0.011453 
2277.931696  	0.011860 
2279.860512  	0.012085 
2281.789328  	0.012268 
2283.718144  	0.012145 
2285.646960  	0.012331 
2287.575776  	0.012508 
2289.504592  	0.012244 
2291.433408  	0.011833 
2293.362224  	0.011763 
2295.291040  	0.011758 
2297.219856  	0.011985 
2299.148672  	0.011827 
2301.077488  	0.011661 
2303.006304  	0.011943 
2304.935120  	0.012042 
2306.863936  	0.011795 
2308.792752  	0.011892 
2310.721568  	0.011952 
2312.650384  	0.011746 
2314.579200  	0.011509 
2316.508016  	0.011888 
2318.436832  	0.011864 
2320.365648  	0.011717 
2322.294464  	0.011958 
2324.223280  	0.011808 
2326.152096  	0.010520 
2328.080912  	0.009522 
2330.009728  	0.009255 
2331.938544  	0.009300 
2333.867360  	0.008634 
2335.796176  	0.008084 
2337.724992  	0.007987 
2339.653808  	0.007997 
2341.582624  	0.007898 
2343.511440  	0.008675 
2345.440256  	0.009602 
2347.369072  	0.010316 
2349.297888  	0.009962 
2351.226704  	0.008907 
2353.155520  	0.008140 
2355.084336  	0.007291 
2357.013152  	0.006563 
2358.941968  	0.006184 
2360.870784  	0.006142 
2362.799600  	0.006612 
2364.728416  	0.006593 
2366.657232  	0.006925 
2368.586048  	0.007598 
2370.514864  	0.008560 
2372.443680  	0.009381 
2374.372496  	0.010376 
2376.301312  	0.010958 
2378.230128  	0.011378 
2380.158944  	0.011547 
2382.087760  	0.011666 
2384.016576  	0.011647 
2385.945392  	0.011595 
2387.874208  	0.011391 
2389.803024  	0.011392 
2391.731840  	0.011312 
2393.660656  	0.011327 
2395.589472  	0.011436 
2397.518288  	0.011558 
2399.447104  	0.011476 
2401.375920  	0.011298 
2403.304736  	0.011362 
2405.233552  	0.011523 
2407.162368  	0.011685 
2409.091184  	0.011646 
2411.020000  	0.011682 
2412.948816  	0.012071 
2414.877632  	0.012306 
2416.806448  	0.012441 
2418.735264  	0.012299 
2420.664080  	0.012059 
2422.592896  	0.011846 
2424.521712  	0.011943 
2426.450528  	0.012172 
2428.379344  	0.012136 
2430.308160  	0.012146 
2432.236976  	0.012287 
2434.165792  	0.012485 
2436.094608  	0.012878 
2438.023424  	0.013022 
2439.952240  	0.013229 
2441.881056  	0.013150 
2443.809872  	0.012972 
2445.738688  	0.013083 
2447.667504  	0.013214 
2449.596320  	0.013166 
2451.525136  	0.013065 
2453.453952  	0.012973 
2455.382768  	0.013414 
2457.311584  	0.013719 
2459.240400  	0.013572 
2461.169216  	0.013355 
2463.098032  	0.013208 
2465.026848  	0.013068 
2466.955664  	0.013149 
2468.884480  	0.013211 
2470.813296  	0.013424 
2472.742112  	0.013538 
2474.670928  	0.013541 
2476.599744  	0.013633 
2478.528560  	0.013670 
2480.457376  	0.013956 
2482.386192  	0.014023 
2484.315008  	0.014056 
2486.243824  	0.014153 
2488.172640  	0.013904 
2490.101456  	0.013999 
2492.030272  	0.014246 
2493.959088  	0.014100 
2495.887904  	0.014032 
2497.816720  	0.014299 
2499.745536  	0.014338 
2501.674352  	0.014496 
2503.603168  	0.014569 
2505.531984  	0.014485 
2507.460800  	0.014467 
2509.389616  	0.014473 
2511.318432  	0.014354 
2513.247248  	0.014530 
2515.176064  	0.014732 
2517.104880  	0.015001 
2519.033696  	0.015122 
2520.962512  	0.015042 
2522.891328  	0.015125 
2524.820144  	0.015255 
2526.748960  	0.015270 
2528.677776  	0.015288 
2530.606592  	0.015269 
2532.535408  	0.015354 
2534.464224  	0.015566 
2536.393040  	0.015778 
2538.321856  	0.015595 
2540.250672  	0.015589 
2542.179488  	0.015583 
2544.108304  	0.015675 
2546.037120  	0.015686 
2547.965936  	0.016062 
2549.894752  	0.016301 
2551.823568  	0.016357 
2553.752384  	0.016389 
2555.681200  	0.016423 
2557.610016  	0.016465 
2559.538832  	0.016513 
2561.467648  	0.016567 
2563.396464  	0.016827 
2565.325280  	0.017060 
2567.254096  	0.017134 
2569.182912  	0.016959 
2571.111728  	0.016996 
2573.040544  	0.016870 
2574.969360  	0.016790 
2576.898176  	0.017084 
2578.826992  	0.017519 
2580.755808  	0.017437 
2582.684624  	0.017310 
2584.613440  	0.017376 
2586.542256  	0.017592 
2588.471072  	0.017817 
2590.399888  	0.017943 
2592.328704  	0.018068 
2594.257520  	0.018131 
2596.186336  	0.018331 
2598.115152  	0.018579 
2600.043968  	0.018477 
2601.972784  	0.018380 
2603.901600  	0.018621 
2605.830416  	0.018947 
2607.759232  	0.018887 
2609.688048  	0.018853 
2611.616864  	0.018936 
2613.545680  	0.019215 
2615.474496  	0.019329 
2617.403312  	0.019355 
2619.332128  	0.019576 
2621.260944  	0.019746 
2623.189760  	0.019718 
2625.118576  	0.019754 
2627.047392  	0.019905 
2628.976208  	0.020307 
2630.905024  	0.020388 
2632.833840  	0.020476 
2634.762656  	0.020631 
2636.691472  	0.020745 
2638.620288  	0.020756 
2640.549104  	0.020914 
2642.477920  	0.021021 
2644.406736  	0.021098 
2646.335552  	0.021333 
2648.264368  	0.021546 
2650.193184  	0.021699 
2652.122000  	0.021924 
2654.050816  	0.022074 
2655.979632  	0.022022 
2657.908448  	0.022080 
2659.837264  	0.022211 
2661.766080  	0.022208 
2663.694896  	0.022276 
2665.623712  	0.022283 
2667.552528  	0.022245 
2669.481344  	0.022399 
2671.410160  	0.022654 
2673.338976  	0.022730 
2675.267792  	0.022811 
2677.196608  	0.022966 
2679.125424  	0.023228 
2681.054240  	0.023325 
2682.983056  	0.023389 
2684.911872  	0.023564 
2686.840688  	0.023694 
2688.769504  	0.023812 
2690.698320  	0.023889 
2692.627136  	0.023940 
2694.555952  	0.024060 
2696.484768  	0.024118 
2698.413584  	0.024234 
2700.342400  	0.024324 
2702.271216  	0.024596 
2704.200032  	0.024842 
2706.128848  	0.024965 
2708.057664  	0.025117 
2709.986480  	0.025270 
2711.915296  	0.025342 
2713.844112  	0.025417 
2715.772928  	0.025631 
2717.701744  	0.025876 
2719.630560  	0.025957 
2721.559376  	0.026033 
2723.488192  	0.026116 
2725.417008  	0.026323 
2727.345824  	0.026543 
2729.274640  	0.026622 
2731.203456  	0.026715 
2733.132272  	0.026984 
2735.061088  	0.027269 
2736.989904  	0.027421 
2738.918720  	0.027507 
2740.847536  	0.027556 
2742.776352  	0.027743 
2744.705168  	0.027940 
2746.633984  	0.028008 
2748.562800  	0.028189 
2750.491616  	0.028297 
2752.420432  	0.028305 
2754.349248  	0.028342 
2756.278064  	0.028461 
2758.206880  	0.028515 
2760.135696  	0.028810 
2762.064512  	0.028950 
2763.993328  	0.028989 
2765.922144  	0.029077 
2767.850960  	0.029095 
2769.779776  	0.029169 
2771.708592  	0.029333 
2773.637408  	0.029346 
2775.566224  	0.029385 
2777.495040  	0.029398 
2779.423856  	0.029505 
2781.352672  	0.029701 
2783.281488  	0.029884 
2785.210304  	0.029966 
2787.139120  	0.030119 
2789.067936  	0.030401 
2790.996752  	0.030591 
2792.925568  	0.030751 
2794.854384  	0.030953 
2796.783200  	0.031038 
2798.712016  	0.030988 
2800.640832  	0.031057 
2802.569648  	0.031278 
2804.498464  	0.031446 
2806.427280  	0.031575 
2808.356096  	0.031800 
2810.284912  	0.032034 
2812.213728  	0.032087 
2814.142544  	0.032222 
2816.071360  	0.032514 
2818.000176  	0.032637 
2819.928992  	0.032654 
2821.857808  	0.032821 
2823.786624  	0.033122 
2825.715440  	0.033300 
2827.644256  	0.033242 
2829.573072  	0.033359 
2831.501888  	0.033555 
2833.430704  	0.033718 
2835.359520  	0.033893 
2837.288336  	0.034176 
2839.217152  	0.034547 
2841.145968  	0.034899 
2843.074784  	0.035254 
2845.003600  	0.035747 
2846.932416  	0.036401 
2848.861232  	0.037055 
2850.790048  	0.037640 
2852.718864  	0.038209 
2854.647680  	0.038766 
2856.576496  	0.039502 
2858.505312  	0.040274 
2860.434128  	0.041095 
2862.362944  	0.042003 
2864.291760  	0.043065 
2866.220576  	0.044127 
2868.149392  	0.045154 
2870.078208  	0.046131 
2872.007024  	0.046878 
2873.935840  	0.047436 
2875.864656  	0.048437 
2877.793472  	0.049823 
2879.722288  	0.051259 
2881.651104  	0.052732 
2883.579920  	0.053848 
2885.508736  	0.054350 
2887.437552  	0.054564 
2889.366368  	0.054921 
2891.295184  	0.055521 
2893.224000  	0.055949 
2895.152816  	0.056208 
2897.081632  	0.056413 
2899.010448  	0.058123 
2900.939264  	0.060072 
2902.868080  	0.059106 
2904.796896  	0.058040 
2906.725712  	0.057901 
2908.654528  	0.057783 
2910.583344  	0.058027 
2912.512160  	0.058265 
2914.440976  	0.058177 
2916.369792  	0.058150 
2918.298608  	0.058411 
2920.227424  	0.058900 
2922.156240  	0.059432 
2924.085056  	0.059686 
2926.013872  	0.060005 
2927.942688  	0.060363 
2929.871504  	0.060605 
2931.800320  	0.060731 
2933.729136  	0.061130 
2935.657952  	0.061557 
2937.586768  	0.061905 
2939.515584  	0.062311 
2941.444400  	0.062846 
2943.373216  	0.063361 
2945.302032  	0.063576 
2947.230848  	0.063695 
2949.159664  	0.064125 
2951.088480  	0.064732 
2953.017296  	0.065479 
2954.946112  	0.066157 
2956.874928  	0.066695 
2958.803744  	0.067152 
2960.732560  	0.067455 
2962.661376  	0.067863 
2964.590192  	0.068587 
2966.519008  	0.069446 
2968.447824  	0.070203 
2970.376640  	0.070710 
2972.305456  	0.070834 
2974.234272  	0.070222 
2976.163088  	0.069668 
2978.091904  	0.069400 
2980.020720  	0.069269 
2981.949536  	0.069031 
2983.878352  	0.068931 
2985.807168  	0.069469 
2987.735984  	0.070395 
2989.664800  	0.070000 
2991.593616  	0.066788 
2993.522432  	0.064956 
2995.451248  	0.064637 
2997.380064  	0.063957 
2999.308880  	0.062866 
3001.237696  	0.061802 
3003.166512  	0.060642 
3005.095328  	0.059444 
3007.024144  	0.058384 
3008.952960  	0.057271 
3010.881776  	0.056146 
3012.810592  	0.055141 
3014.739408  	0.054178 
3016.668224  	0.053411 
3018.597040  	0.052632 
3020.525856  	0.051689 
3022.454672  	0.050942 
3024.383488  	0.050373 
3026.312304  	0.049883 
3028.241120  	0.049412 
3030.169936  	0.048826 
3032.098752  	0.048471 
3034.027568  	0.048088 
3035.956384  	0.047764 
3037.885200  	0.047714 
3039.814016  	0.047714 
3041.742832  	0.047790 
3043.671648  	0.047804 
3045.600464  	0.047811 
3047.529280  	0.047875 
3049.458096  	0.047925 
3051.386912  	0.047991 
3053.315728  	0.048206 
3055.244544  	0.048583 
3057.173360  	0.049067 
3059.102176  	0.049476 
3061.030992  	0.049704 
3062.959808  	0.049910 
3064.888624  	0.050291 
3066.817440  	0.050831 
3068.746256  	0.051168 
3070.675072  	0.051465 
3072.603888  	0.051960 
3074.532704  	0.052517 
3076.461520  	0.052940 
3078.390336  	0.053190 
3080.319152  	0.053570 
3082.247968  	0.054173 
3084.176784  	0.054656 
3086.105600  	0.054921 
3088.034416  	0.055361 
3089.963232  	0.055818 
3091.892048  	0.056154 
3093.820864  	0.056537 
3095.749680  	0.056945 
3097.678496  	0.057123 
3099.607312  	0.057626 
3101.536128  	0.058082 
3103.464944  	0.058468 
3105.393760  	0.058890 
3107.322576  	0.059239 
3109.251392  	0.059553 
3111.180208  	0.059937 
3113.109024  	0.060214 
3115.037840  	0.060490 
3116.966656  	0.060706 
3118.895472  	0.061012 
3120.824288  	0.061281 
3122.753104  	0.061770 
3124.681920  	0.062212 
3126.610736  	0.062348 
3128.539552  	0.062585 
3130.468368  	0.062919 
3132.397184  	0.063131 
3134.326000  	0.063223 
3136.254816  	0.063482 
3138.183632  	0.063884 
3140.112448  	0.064027 
3142.041264  	0.064326 
3143.970080  	0.064662 
3145.898896  	0.064987 
3147.827712  	0.065285 
3149.756528  	0.065710 
3151.685344  	0.066167 
3153.614160  	0.066447 
3155.542976  	0.066704 
3157.471792  	0.067108 
3159.400608  	0.067537 
3161.329424  	0.067891 
3163.258240  	0.068220 
3165.187056  	0.068535 
3167.115872  	0.068912 
3169.044688  	0.069080 
3170.973504  	0.069132 
3172.902320  	0.069309 
3174.831136  	0.069773 
3176.759952  	0.070041 
3178.688768  	0.070265 
3180.617584  	0.070491 
3182.546400  	0.070309 
3184.475216  	0.070420 
3186.404032  	0.070653 
3188.332848  	0.070904 
3190.261664  	0.071241 
3192.190480  	0.071372 
3194.119296  	0.071104 
3196.048112  	0.070970 
3197.976928  	0.071379 
3199.905744  	0.071487 
3201.834560  	0.071282 
3203.763376  	0.071235 
3205.692192  	0.071241 
3207.621008  	0.071109 
3209.549824  	0.071039 
3211.478640  	0.070830 
3213.407456  	0.070597 
3215.336272  	0.070686 
3217.265088  	0.070628 
3219.193904  	0.070367 
3221.122720  	0.070093 
3223.051536  	0.069774 
3224.980352  	0.069589 
3226.909168  	0.069517 
3228.837984  	0.069335 
3230.766800  	0.069333 
3232.695616  	0.069277 
3234.624432  	0.069138 
3236.553248  	0.069122 
3238.482064  	0.068975 
3240.410880  	0.068738 
3242.339696  	0.068629 
3244.268512  	0.068623 
3246.197328  	0.068543 
3248.126144  	0.068538 
3250.054960  	0.068609 
3251.983776  	0.068520 
3253.912592  	0.068489 
3255.841408  	0.068660 
3257.770224  	0.068876 
3259.699040  	0.068957 
3261.627856  	0.068963 
3263.556672  	0.068958 
3265.485488  	0.069031 
3267.414304  	0.069150 
3269.343120  	0.069313 
3271.271936  	0.069601 
3273.200752  	0.069817 
3275.129568  	0.069888 
3277.058384  	0.069796 
3278.987200  	0.069893 
3280.916016  	0.070230 
3282.844832  	0.070335 
3284.773648  	0.070468 
3286.702464  	0.070545 
3288.631280  	0.070702 
3290.560096  	0.070960 
3292.488912  	0.071130 
3294.417728  	0.071270 
3296.346544  	0.071421 
3298.275360  	0.071534 
3300.204176  	0.071847 
3302.132992  	0.072167 
3304.061808  	0.072467 
3305.990624  	0.072880 
3307.919440  	0.073109 
3309.848256  	0.073038 
3311.777072  	0.073018 
3313.705888  	0.073412 
3315.634704  	0.073925 
3317.563520  	0.074119 
3319.492336  	0.074164 
3321.421152  	0.074228 
3323.349968  	0.074393 
3325.278784  	0.074598 
3327.207600  	0.074761 
3329.136416  	0.074885 
3331.065232  	0.074891 
3332.994048  	0.075066 
3334.922864  	0.074998 
3336.851680  	0.074775 
3338.780496  	0.074740 
3340.709312  	0.074588 
3342.638128  	0.074532 
3344.566944  	0.074482 
3346.495760  	0.074152 
3348.424576  	0.073881 
3350.353392  	0.073872 
3352.282208  	0.073811 
3354.211024  	0.073679 
3356.139840  	0.073273 
3358.068656  	0.072840 
3359.997472  	0.072707 
3361.926288  	0.072565 
3363.855104  	0.072162 
3365.783920  	0.071886 
3367.712736  	0.071770 
3369.641552  	0.071316 
3371.570368  	0.070812 
3373.499184  	0.070670 
3375.428000  	0.070439 
3377.356816  	0.069999 
3379.285632  	0.069681 
3381.214448  	0.069540 
3383.143264  	0.069253 
3385.072080  	0.068930 
3387.000896  	0.068644 
3388.929712  	0.068440 
3390.858528  	0.068257 
3392.787344  	0.067839 
3394.716160  	0.067312 
3396.644976  	0.067084 
3398.573792  	0.066782 
3400.502608  	0.066205 
3402.431424  	0.065751 
3404.360240  	0.065478 
3406.289056  	0.065160 
3408.217872  	0.064798 
3410.146688  	0.064417 
3412.075504  	0.064357 
3414.004320  	0.064215 
3415.933136  	0.063638 
3417.861952  	0.063050 
3419.790768  	0.062812 
3421.719584  	0.062521 
3423.648400  	0.061988 
3425.577216  	0.061691 
3427.506032  	0.061453 
3429.434848  	0.060911 
3431.363664  	0.060508 
3433.292480  	0.060281 
3435.221296  	0.059974 
3437.150112  	0.059583 
3439.078928  	0.059288 
3441.007744  	0.058901 
3442.936560  	0.058608 
3444.865376  	0.057914 
3446.794192  	0.057151 
3448.723008  	0.057006 
3450.651824  	0.056726 
3452.580640  	0.056196 
3454.509456  	0.055816 
3456.438272  	0.055350 
3458.367088  	0.054881 
3460.295904  	0.054381 
3462.224720  	0.053869 
3464.153536  	0.053343 
3466.082352  	0.052923 
3468.011168  	0.052563 
3469.939984  	0.052015 
3471.868800  	0.051577 
3473.797616  	0.051306 
3475.726432  	0.050604 
3477.655248  	0.049801 
3479.584064  	0.049282 
3481.512880  	0.048753 
3483.441696  	0.048191 
3485.370512  	0.047497 
3487.299328  	0.046987 
3489.228144  	0.046756 
3491.156960  	0.046125 
3493.085776  	0.045494 
3495.014592  	0.044978 
3496.943408  	0.044567 
3498.872224  	0.043963 
3500.801040  	0.043278 
3502.729856  	0.042723 
3504.658672  	0.042501 
3506.587488  	0.041787 
3508.516304  	0.041092 
3510.445120  	0.041052 
3512.373936  	0.041090 
3514.302752  	0.040636 
3516.231568  	0.039959 
3518.160384  	0.039420 
3520.089200  	0.038903 
3522.018016  	0.038301 
3523.946832  	0.037837 
3525.875648  	0.037523 
3527.804464  	0.037100 
3529.733280  	0.036925 
3531.662096  	0.036771 
3533.590912  	0.036304 
3535.519728  	0.035807 
3537.448544  	0.035519 
3539.377360  	0.035207 
3541.306176  	0.034699 
3543.234992  	0.034029 
3545.163808  	0.033594 
3547.092624  	0.033402 
3549.021440  	0.032790 
3550.950256  	0.032211 
3552.879072  	0.032199 
3554.807888  	0.032191 
3556.736704  	0.031803 
3558.665520  	0.031392 
3560.594336  	0.031120 
3562.523152  	0.030606 
3564.451968  	0.029418 
3566.380784  	0.028289 
3568.309600  	0.028502 
3570.238416  	0.028822 
3572.167232  	0.028309 
3574.096048  	0.027751 
3576.024864  	0.027369 
3577.953680  	0.026944 
3579.882496  	0.026542 
3581.811312  	0.026264 
3583.740128  	0.025482 
3585.668944  	0.024147 
3587.597760  	0.023728 
3589.526576  	0.024057 
3591.455392  	0.023427 
3593.384208  	0.022862 
3595.313024  	0.022525 
3597.241840  	0.022185 
3599.170656  	0.021427 
3601.099472  	0.020920 
3603.028288  	0.020870 
3604.957104  	0.020230 
3606.885920  	0.019079 
3608.814736  	0.018981 
3610.743552  	0.018608 
3612.672368  	0.017631 
3614.601184  	0.017418 
3616.530000  	0.016637 
3618.458816  	0.015775 
3620.387632  	0.016033 
3622.316448  	0.016213 
3624.245264  	0.015713 
3626.174080  	0.014280 
3628.102896  	0.012791 
3630.031712  	0.014359 
3631.960528  	0.014937 
3633.889344  	0.014339 
3635.818160  	0.013880 
3637.746976  	0.013827 
3639.675792  	0.014174 
3641.604608  	0.014086 
3643.533424  	0.013613 
3645.462240  	0.012147 
3647.391056  	0.010533 
3649.319872  	0.010516 
3651.248688  	0.012513 
3653.177504  	0.013561 
3655.106320  	0.013106 
3657.035136  	0.013840 
3658.963952  	0.014321 
3660.892768  	0.014004 
3662.821584  	0.013601 
3664.750400  	0.012976 
3666.679216  	0.011943 
3668.608032  	0.010288 
3670.536848  	0.010327 
3672.465664  	0.010653 
3674.394480  	0.009382 
3676.323296  	0.010996 
3678.252112  	0.010846 
3680.180928  	0.010246 
3682.109744  	0.010567 
3684.038560  	0.010693 
3685.967376  	0.009428 
3687.896192  	0.007870 
3689.825008  	0.008074 
3691.753824  	0.008662 
3693.682640  	0.008791 
3695.611456  	0.008029 
3697.540272  	0.007556 
3699.469088  	0.006739 
3701.397904  	0.006056 
3703.326720  	0.005987 
3705.255536  	0.005499 
3707.184352  	0.004450 
3709.113168  	0.003321 
3711.041984  	0.002746 
3712.970800  	0.003776 
3714.899616  	0.004350 
3716.828432  	0.003944 
3718.757248  	0.003308 
3720.686064  	0.002905 
3722.614880  	0.003092 
3724.543696  	0.003163 
3726.472512  	0.003366 
3728.401328  	0.003454 
3730.330144  	0.002143 
3732.258960  	0.001132 
3734.187776  	0.000881 
3736.116592  	0.001830 
3738.045408  	0.002921 
3739.974224  	0.002476 
3741.903040  	0.001517 
3743.831856  	0.001263 
3745.760672  	0.002901 
3747.689488  	0.001576 
3749.618304  	0.000406 
3751.547120  	0.001254 
3753.475936  	0.003215 
3755.404752  	0.003274 
3757.333568  	0.002513 
3759.262384  	0.002708 
3761.191200  	0.003783 
3763.120016  	0.003567 
3765.048832  	0.002901 
3766.977648  	0.002913 
3768.906464  	0.002571 
3770.835280  	0.003420 
3772.764096  	0.004150 
3774.692912  	0.004015 
3776.621728  	0.003376 
3778.550544  	0.002803 
3780.479360  	0.003386 
3782.408176  	0.003538 
3784.336992  	0.003413 
3786.265808  	0.003917 
3788.194624  	0.004076 
3790.123440  	0.003913 
3792.052256  	0.003793 
3793.981072  	0.003410 
3795.909888  	0.002923 
3797.838704  	0.002897 
3799.767520  	0.001847 
3801.696336  	0.002135 
3803.625152  	0.003210 
3805.553968  	0.002518 
3807.482784  	0.003261 
3809.411600  	0.004115 
3811.340416  	0.003929 
3813.269232  	0.003220 
3815.198048  	0.002055 
3817.126864  	0.002610 
3819.055680  	0.001917 
3820.984496  	0.001737 
3822.913312  	0.003526 
3824.842128  	0.003297 
3826.770944  	0.003099 
3828.699760  	0.003325 
3830.628576  	0.002851 
3832.557392  	0.002802 
3834.486208  	0.002288 
3836.415024  	0.001613 
3838.343840  	0.001933 
3840.272656  	0.002553 
3842.201472  	0.002858 
3844.130288  	0.003168 
3846.059104  	0.003702 
3847.987920  	0.003500 
3849.916736  	0.002439 
3851.845552  	0.000612 
3853.774368  	0.001692 
3855.703184  	0.003696 
3857.632000  	0.003520 
3859.560816  	0.003212 
3861.489632  	0.002723 
3863.418448  	0.002565 
3865.347264  	0.003025 
3867.276080  	0.002900 
3869.204896  	0.002186 
3871.133712  	0.003426 
3873.062528  	0.003259 
3874.991344  	0.003660 
3876.920160  	0.003723 
3878.848976  	0.002921 
3880.777792  	0.003119 
3882.706608  	0.003504 
3884.635424  	0.002859 
3886.564240  	0.003812 
3888.493056  	0.003828 
3890.421872  	0.003036 
3892.350688  	0.003586 
3894.279504  	0.003959 
3896.208320  	0.003483 
3898.137136  	0.002764 
3900.065952  	0.002478 
3901.994768  	0.002465 
3903.923584  	0.003026 
3905.852400  	0.003858 
3907.781216  	0.004038 
3909.710032  	0.003975 
3911.638848  	0.003961 
3913.567664  	0.003835 
3915.496480  	0.003637 
3917.425296  	0.003950 
3919.354112  	0.004067 
3921.282928  	0.004076 
3923.211744  	0.003718 
3925.140560  	0.003846 
3927.069376  	0.004005 
3928.998192  	0.003592 
3930.927008  	0.003518 
3932.855824  	0.003943 
3934.784640  	0.004142 
3936.713456  	0.004207 
3938.642272  	0.004215 
3940.571088  	0.003914 
3942.499904  	0.003937 
3944.428720  	0.004194 
3946.357536  	0.003970 
3948.286352  	0.003746 
3950.215168  	0.003732 
3952.143984  	0.003785 
3954.072800  	0.003965 
3956.001616  	0.003994 
3957.930432  	0.004112 
3959.859248  	0.004316 
3961.788064  	0.004282 
3963.716880  	0.004227 
3965.645696  	0.004328 
3967.574512  	0.004483 
3969.503328  	0.004433 
3971.432144  	0.004129 
3973.360960  	0.003942 
3975.289776  	0.004134 
3977.218592  	0.004411 
3979.147408  	0.004492 
3981.076224  	0.004331 
3983.005040  	0.004323 
3984.933856  	0.004376 
3986.862672  	0.004450 
3988.791488  	0.004421 
3990.720304  	0.004345 
3992.649120  	0.004392 
3994.577936  	0.004394 
3996.506752  	0.004236 
3998.435568  	0.004260 
4000.364384  	0.004312 