##TITLE=No Description
##DATA TYPE=INFRARED SPECTRUM
##XUNITS=1/CM
##YUNITS=Abs
399.264912  	0.604749 
401.193728  	0.598051 
403.122544  	0.606457 
405.051360  	0.579513 
406.980176  	0.560564 
408.908992  	0.559578 
410.837808  	0.573650 
412.766624  	0.580130 
414.695440  	0.585579 
416.624256  	0.562680 
418.553072  	0.536400 
420.481888  	0.545323 
422.410704  	0.555661 
424.339520  	0.545198 
426.268336  	0.544297 
428.197152  	0.541947 
430.125968  	0.540848 
432.054784  	0.531074 
433.983600  	0.532149 
435.912416  	0.526773 
437.841232  	0.525654 
439.770048  	0.522125 
441.698864  	0.519823 
443.627680  	0.513491 
445.556496  	0.512988 
447.485312  	0.511368 
449.414128  	0.513535 
451.342944  	0.511421 
453.271760  	0.512688 
455.200576  	0.508654 
457.129392  	0.505710 
459.058208  	0.503503 
460.987024  	0.505544 
462.915840  	0.504175 
464.844656  	0.508505 
466.773472  	0.510423 
468.702288  	0.512360 
470.631104  	0.507089 
472.559920  	0.503268 
474.488736  	0.499242 
476.417552  	0.501944 
478.346368  	0.503017 
480.275184  	0.504638 
482.204000  	0.502153 
484.132816  	0.502267 
486.061632  	0.499976 
487.990448  	0.501244 
489.919264  	0.498628 
491.848080  	0.499020 
493.776896  	0.497165 
495.705712  	0.493634 
497.634528  	0.489382 
499.563344  	0.491912 
501.492160  	0.492034 
503.420976  	0.496104 
505.349792  	0.492650 
507.278608  	0.491185 
509.207424  	0.492190 
511.136240  	0.492349 
513.065056  	0.491684 
514.993872  	0.493991 
516.922688  	0.493610 
518.851504  	0.495338 
520.780320  	0.493825 
522.709136  	0.493559 
524.637952  	0.491254 
526.566768  	0.489852 
528.495584  	0.488195 
530.424400  	0.484464 
532.353216  	0.477235 
534.282032  	0.474298 
536.210848  	0.471351 
538.139664  	0.469004 
540.068480  	0.464563 
541.997296  	0.461511 
543.926112  	0.457867 
545.854928  	0.455444 
547.783744  	0.451459 
549.712560  	0.447869 
551.641376  	0.443505 
553.570192  	0.441545 
555.499008  	0.438290 
557.427824  	0.435419 
559.356640  	0.430635 
561.285456  	0.428037 
563.214272  	0.424880 
565.143088  	0.421817 
567.071904  	0.417661 
569.000720  	0.414480 
570.929536  	0.410442 
572.858352  	0.407431 
574.787168  	0.405197 
576.715984  	0.402174 
578.644800  	0.397871 
580.573616  	0.395052 
582.502432  	0.391328 
584.431248  	0.388839 
586.360064  	0.386435 
588.288880  	0.385069 
590.217696  	0.382246 
592.146512  	0.379901 
594.075328  	0.377246 
596.004144  	0.374347 
597.932960  	0.372232 
599.861776  	0.371493 
601.790592  	0.370498 
603.719408  	0.369625 
605.648224  	0.367460 
607.577040  	0.367314 
609.505856  	0.366987 
611.434672  	0.365619 
613.363488  	0.363085 
615.292304  	0.361402 
617.221120  	0.359366 
619.149936  	0.357932 
621.078752  	0.356056 
623.007568  	0.353840 
624.936384  	0.351453 
626.865200  	0.350408 
628.794016  	0.349294 
630.722832  	0.348241 
632.651648  	0.347005 
634.580464  	0.346222 
636.509280  	0.346371 
638.438096  	0.346133 
640.366912  	0.345489 
642.295728  	0.344541 
644.224544  	0.342357 
646.153360  	0.339071 
648.082176  	0.335528 
650.010992  	0.333194 
651.939808  	0.329745 
653.868624  	0.325991 
655.797440  	0.322436 
657.726256  	0.319483 
659.655072  	0.315409 
661.583888  	0.311885 
663.512704  	0.308614 
665.441520  	0.305789 
667.370336  	0.302440 
669.299152  	0.298740 
671.227968  	0.296280 
673.156784  	0.293828 
675.085600  	0.290957 
677.014416  	0.289125 
678.943232  	0.287804 
680.872048  	0.285867 
682.800864  	0.283691 
684.729680  	0.282024 
686.658496  	0.279876 
688.587312  	0.278030 
690.516128  	0.276026 
692.444944  	0.274698 
694.373760  	0.272909 
696.302576  	0.271037 
698.231392  	0.268686 
700.160208  	0.265915 
702.089024  	0.263143 
704.017840  	0.261406 
705.946656  	0.258852 
707.875472  	0.256361 
709.804288  	0.254367 
711.733104  	0.252534 
713.661920  	0.250521 
715.590736  	0.249751 
717.519552  	0.249528 
719.448368  	0.249790 
721.377184  	0.250671 
723.306000  	0.250929 
725.234816  	0.250501 
727.163632  	0.249203 
729.092448  	0.246889 
731.021264  	0.244613 
732.950080  	0.242132 
734.878896  	0.239040 
736.807712  	0.236184 
738.736528  	0.234533 
740.665344  	0.233131 
742.594160  	0.231887 
744.522976  	0.230192 
746.451792  	0.229111 
748.380608  	0.228057 
750.309424  	0.227105 
752.238240  	0.226386 
754.167056  	0.225834 
756.095872  	0.224767 
758.024688  	0.223487 
759.953504  	0.222663 
761.882320  	0.222761 
763.811136  	0.223033 
765.739952  	0.222561 
767.668768  	0.221367 
769.597584  	0.219740 
771.526400  	0.219057 
773.455216  	0.220371 
775.384032  	0.222595 
777.312848  	0.225819 
779.241664  	0.229072 
781.170480  	0.229683 
783.099296  	0.226708 
785.028112  	0.221928 
786.956928  	0.216478 
788.885744  	0.211744 
790.814560  	0.208109 
792.743376  	0.205918 
794.672192  	0.204362 
796.601008  	0.203593 
798.529824  	0.201899 
800.458640  	0.198714 
802.387456  	0.195411 
804.316272  	0.193517 
806.245088  	0.192717 
808.173904  	0.192263 
810.102720  	0.191863 
812.031536  	0.191929 
813.960352  	0.191915 
815.889168  	0.191630 
817.817984  	0.191342 
819.746800  	0.191405 
821.675616  	0.191224 
823.604432  	0.190535 
825.533248  	0.189155 
827.462064  	0.187741 
829.390880  	0.186704 
831.319696  	0.185611 
833.248512  	0.184194 
835.177328  	0.182358 
837.106144  	0.180092 
839.034960  	0.177341 
840.963776  	0.174425 
842.892592  	0.172181 
844.821408  	0.169557 
846.750224  	0.166791 
848.679040  	0.164785 
850.607856  	0.163094 
852.536672  	0.161775 
854.465488  	0.160289 
856.394304  	0.158890 
858.323120  	0.157887 
860.251936  	0.156818 
862.180752  	0.155265 
864.109568  	0.153847 
866.038384  	0.152560 
867.967200  	0.151226 
869.896016  	0.149907 
871.824832  	0.148489 
873.753648  	0.147668 
875.682464  	0.147555 
877.611280  	0.148176 
879.540096  	0.148970 
881.468912  	0.149363 
883.397728  	0.149602 
885.326544  	0.149781 
887.255360  	0.149586 
889.184176  	0.149255 
891.112992  	0.148681 
893.041808  	0.146975 
894.970624  	0.144581 
896.899440  	0.141732 
898.828256  	0.138374 
900.757072  	0.135133 
902.685888  	0.132408 
904.614704  	0.130476 
906.543520  	0.129707 
908.472336  	0.130213 
910.401152  	0.131622 
912.329968  	0.133696 
914.258784  	0.136111 
916.187600  	0.138338 
918.116416  	0.139899 
920.045232  	0.140456 
921.974048  	0.140001 
923.902864  	0.139252 
925.831680  	0.137962 
927.760496  	0.136670 
929.689312  	0.135787 
931.618128  	0.135545 
933.546944  	0.135439 
935.475760  	0.135324 
937.404576  	0.135392 
939.333392  	0.135944 
941.262208  	0.137006 
943.191024  	0.138920 
945.119840  	0.142174 
947.048656  	0.146405 
948.977472  	0.151740 
950.906288  	0.157874 
952.835104  	0.164567 
954.763920  	0.171359 
956.692736  	0.177612 
958.621552  	0.182897 
960.550368  	0.186457 
962.479184  	0.187932 
964.408000  	0.186716 
966.336816  	0.183296 
968.265632  	0.177374 
970.194448  	0.169786 
972.123264  	0.161068 
974.052080  	0.151751 
975.980896  	0.142613 
977.909712  	0.134199 
979.838528  	0.127040 
981.767344  	0.121175 
983.696160  	0.117130 
985.624976  	0.115017 
987.553792  	0.115094 
989.482608  	0.117247 
991.411424  	0.121102 
993.340240  	0.126166 
995.269056  	0.132594 
997.197872  	0.139531 
999.126688  	0.146145 
1001.055504  	0.152963 
1002.984320  	0.159814 
1004.913136  	0.166473 
1006.841952  	0.172344 
1008.770768  	0.177548 
1010.699584  	0.181783 
1012.628400  	0.184891 
1014.557216  	0.186854 
1016.486032  	0.188478 
1018.414848  	0.189527 
1020.343664  	0.190452 
1022.272480  	0.191319 
1024.201296  	0.192384 
1026.130112  	0.194241 
1028.058928  	0.195884 
1029.987744  	0.195970 
1031.916560  	0.198141 
1033.845376  	0.202047 
1035.774192  	0.206886 
1037.703008  	0.212023 
1039.631824  	0.217800 
1041.560640  	0.225278 
1043.489456  	0.234967 
1045.418272  	0.246321 
1047.347088  	0.259413 
1049.275904  	0.272858 
1051.204720  	0.286082 
1053.133536  	0.296502 
1055.062352  	0.305060 
1056.991168  	0.311085 
1058.919984  	0.313084 
1060.848800  	0.312097 
1062.777616  	0.312219 
1064.706432  	0.312015 
1066.635248  	0.309559 
1068.564064  	0.302730 
1070.492880  	0.296637 
1072.421696  	0.291377 
1074.350512  	0.286760 
1076.279328  	0.282216 
1078.208144  	0.278822 
1080.136960  	0.275515 
1082.065776  	0.272283 
1083.994592  	0.268437 
1085.923408  	0.264497 
1087.852224  	0.259660 
1089.781040  	0.254278 
1091.709856  	0.246858 
1093.638672  	0.239066 
1095.567488  	0.230298 
1097.496304  	0.221350 
1099.425120  	0.211552 
1101.353936  	0.201486 
1103.282752  	0.191224 
1105.211568  	0.180907 
1107.140384  	0.170396 
1109.069200  	0.160013 
1110.998016  	0.150321 
1112.926832  	0.141487 
1114.855648  	0.132871 
1116.784464  	0.124302 
1118.713280  	0.117108 
1120.642096  	0.110491 
1122.570912  	0.104017 
1124.499728  	0.098266 
1126.428544  	0.093028 
1128.357360  	0.088194 
1130.286176  	0.083603 
1132.214992  	0.079518 
1134.143808  	0.076155 
1136.072624  	0.073190 
1138.001440  	0.070268 
1139.930256  	0.067455 
1141.859072  	0.064965 
1143.787888  	0.062527 
1145.716704  	0.060668 
1147.645520  	0.059160 
1149.574336  	0.057947 
1151.503152  	0.057014 
1153.431968  	0.056716 
1155.360784  	0.056744 
1157.289600  	0.057136 
1159.218416  	0.057816 
1161.147232  	0.058992 
1163.076048  	0.060133 
1165.004864  	0.061498 
1166.933680  	0.062883 
1168.862496  	0.064685 
1170.791312  	0.066905 
1172.720128  	0.068924 
1174.648944  	0.070962 
1176.577760  	0.073318 
1178.506576  	0.075682 
1180.435392  	0.078103 
1182.364208  	0.080394 
1184.293024  	0.082802 
1186.221840  	0.085539 
1188.150656  	0.088561 
1190.079472  	0.091941 
1192.008288  	0.095987 
1193.937104  	0.100731 
1195.865920  	0.106026 
1197.794736  	0.111723 
1199.723552  	0.118113 
1201.652368  	0.124873 
1203.581184  	0.131741 
1205.510000  	0.138565 
1207.438816  	0.145410 
1209.367632  	0.152052 
1211.296448  	0.158216 
1213.225264  	0.163790 
1215.154080  	0.168643 
1217.082896  	0.172891 
1219.011712  	0.176396 
1220.940528  	0.179913 
1222.869344  	0.182495 
1224.798160  	0.184214 
1226.726976  	0.185061 
1228.655792  	0.185815 
1230.584608  	0.185850 
1232.513424  	0.184904 
1234.442240  	0.182585 
1236.371056  	0.179522 
1238.299872  	0.175942 
1240.228688  	0.172639 
1242.157504  	0.167595 
1244.086320  	0.161134 
1246.015136  	0.155102 
1247.943952  	0.149501 
1249.872768  	0.143388 
1251.801584  	0.136658 
1253.730400  	0.130150 
1255.659216  	0.124052 
1257.588032  	0.117948 
1259.516848  	0.111982 
1261.445664  	0.106452 
1263.374480  	0.101477 
1265.303296  	0.096741 
1267.232112  	0.092708 
1269.160928  	0.089699 
1271.089744  	0.087590 
1273.018560  	0.086334 
1274.947376  	0.085673 
1276.876192  	0.085197 
1278.805008  	0.084407 
1280.733824  	0.082881 
1282.662640  	0.080269 
1284.591456  	0.076902 
1286.520272  	0.073527 
1288.449088  	0.070826 
1290.377904  	0.068749 
1292.306720  	0.067130 
1294.235536  	0.065241 
1296.164352  	0.062510 
1298.093168  	0.059367 
1300.021984  	0.056140 
1301.950800  	0.053096 
1303.879616  	0.050561 
1305.808432  	0.048333 
1307.737248  	0.046547 
1309.666064  	0.044941 
1311.594880  	0.043869 
1313.523696  	0.043229 
1315.452512  	0.042842 
1317.381328  	0.042940 
1319.310144  	0.043499 
1321.238960  	0.044389 
1323.167776  	0.045357 
1325.096592  	0.045888 
1327.025408  	0.046070 
1328.954224  	0.045655 
1330.883040  	0.044938 
1332.811856  	0.044072 
1334.740672  	0.043290 
1336.669488  	0.042300 
1338.598304  	0.041485 
1340.527120  	0.041095 
1342.455936  	0.041048 
1344.384752  	0.041180 
1346.313568  	0.041793 
1348.242384  	0.042799 
1350.171200  	0.044308 
1352.100016  	0.046091 
1354.028832  	0.048020 
1355.957648  	0.050123 
1357.886464  	0.052304 
1359.815280  	0.053919 
1361.744096  	0.055366 
1363.672912  	0.057505 
1365.601728  	0.059324 
1367.530544  	0.060260 
1369.459360  	0.061013 
1371.388176  	0.061106 
1373.316992  	0.060250 
1375.245808  	0.059269 
1377.174624  	0.058441 
1379.103440  	0.057034 
1381.032256  	0.055765 
1382.961072  	0.054640 
1384.889888  	0.053329 
1386.818704  	0.051491 
1388.747520  	0.050212 
1390.676336  	0.049703 
1392.605152  	0.049998 
1394.533968  	0.049319 
1396.462784  	0.047660 
1398.391600  	0.047426 
1400.320416  	0.048831 
1402.249232  	0.050112 
1404.178048  	0.051369 
1406.106864  	0.052926 
1408.035680  	0.054425 
1409.964496  	0.055538 
1411.893312  	0.056742 
1413.822128  	0.057729 
1415.750944  	0.058207 
1417.679760  	0.057664 
1419.608576  	0.057162 
1421.537392  	0.056900 
1423.466208  	0.055787 
1425.395024  	0.054436 
1427.323840  	0.052772 
1429.252656  	0.050715 
1431.181472  	0.049455 
1433.110288  	0.049011 
1435.039104  	0.048668 
1436.967920  	0.049010 
1438.896736  	0.050245 
1440.825552  	0.050794 
1442.754368  	0.051222 
1444.683184  	0.051193 
1446.612000  	0.051064 
1448.540816  	0.051593 
1450.469632  	0.052260 
1452.398448  	0.052239 
1454.327264  	0.051654 
1456.256080  	0.050068 
1458.184896  	0.050432 
1460.113712  	0.051627 
1462.042528  	0.052131 
1463.971344  	0.052045 
1465.900160  	0.053657 
1467.828976  	0.055700 
1469.757792  	0.057499 
1471.686608  	0.059367 
1473.615424  	0.063895 
1475.544240  	0.067600 
1477.473056  	0.070704 
1479.401872  	0.072273 
1481.330688  	0.073031 
1483.259504  	0.073365 
1485.188320  	0.072638 
1487.117136  	0.070724 
1489.045952  	0.068555 
1490.974768  	0.066147 
1492.903584  	0.063996 
1494.832400  	0.060563 
1496.761216  	0.056452 
1498.690032  	0.053279 
1500.618848  	0.051073 
1502.547664  	0.048727 
1504.476480  	0.045700 
1506.405296  	0.041928 
1508.334112  	0.041486 
1510.262928  	0.041704 
1512.191744  	0.041224 
1514.120560  	0.040198 
1516.049376  	0.039393 
1517.978192  	0.040011 
1519.907008  	0.040570 
1521.835824  	0.042493 
1523.764640  	0.045641 
1525.693456  	0.047976 
1527.622272  	0.050235 
1529.551088  	0.051694 
1531.479904  	0.051771 
1533.408720  	0.050746 
1535.337536  	0.050222 
1537.266352  	0.048163 
1539.195168  	0.044156 
1541.123984  	0.041631 
1543.052800  	0.041564 
1544.981616  	0.041205 
1546.910432  	0.040875 
1548.839248  	0.039815 
1550.768064  	0.039707 
1552.696880  	0.039670 
1554.625696  	0.039875 
1556.554512  	0.039409 
1558.483328  	0.038747 
1560.412144  	0.043809 
1562.340960  	0.047138 
1564.269776  	0.049187 
1566.198592  	0.052559 
1568.127408  	0.055011 
1570.056224  	0.059414 
1571.985040  	0.063787 
1573.913856  	0.065833 
1575.842672  	0.066838 
1577.771488  	0.069195 
1579.700304  	0.069709 
1581.629120  	0.069692 
1583.557936  	0.069859 
1585.486752  	0.071191 
1587.415568  	0.073469 
1589.344384  	0.077118 
1591.273200  	0.081401 
1593.202016  	0.086535 
1595.130832  	0.091513 
1597.059648  	0.096557 
1598.988464  	0.100482 
1600.917280  	0.103667 
1602.846096  	0.105555 
1604.774912  	0.106685 
1606.703728  	0.106357 
1608.632544  	0.105935 
1610.561360  	0.105200 
1612.490176  	0.104904 
1614.418992  	0.104333 
1616.347808  	0.104929 
1618.276624  	0.107761 
1620.205440  	0.111387 
1622.134256  	0.114657 
1624.063072  	0.120931 
1625.991888  	0.127034 
1627.920704  	0.133760 
1629.849520  	0.141231 
1631.778336  	0.147932 
1633.707152  	0.152758 
1635.635968  	0.159008 
1637.564784  	0.166507 
1639.493600  	0.171617 
1641.422416  	0.175391 
1643.351232  	0.178105 
1645.280048  	0.178530 
1647.208864  	0.179198 
1649.137680  	0.180439 
1651.066496  	0.179705 
1652.995312  	0.176062 
1654.924128  	0.176718 
1656.852944  	0.176535 
1658.781760  	0.175197 
1660.710576  	0.173033 
1662.639392  	0.170708 
1664.568208  	0.169179 
1666.497024  	0.167718 
1668.425840  	0.165039 
1670.354656  	0.163152 
1672.283472  	0.162231 
1674.212288  	0.160990 
1676.141104  	0.160370 
1678.069920  	0.160669 
1679.998736  	0.160386 
1681.927552  	0.159807 
1683.856368  	0.158552 
1685.785184  	0.160441 
1687.714000  	0.160423 
1689.642816  	0.159302 
1691.571632  	0.157934 
1693.500448  	0.155910 
1695.429264  	0.151908 
1697.358080  	0.148590 
1699.286896  	0.145086 
1701.215712  	0.140733 
1703.144528  	0.137977 
1705.073344  	0.133428 
1707.002160  	0.128712 
1708.930976  	0.124585 
1710.859792  	0.119526 
1712.788608  	0.113555 
1714.717424  	0.106840 
1716.646240  	0.099419 
1718.575056  	0.092524 
1720.503872  	0.087220 
1722.432688  	0.081645 
1724.361504  	0.075043 
1726.290320  	0.069321 
1728.219136  	0.063419 
1730.147952  	0.057630 
1732.076768  	0.052343 
1734.005584  	0.047079 
1735.934400  	0.042938 
1737.863216  	0.039771 
1739.792032  	0.035250 
1741.720848  	0.032135 
1743.649664  	0.029050 
1745.578480  	0.026398 
1747.507296  	0.023512 
1749.436112  	0.021560 
1751.364928  	0.020503 
1753.293744  	0.020064 
1755.222560  	0.018598 
1757.151376  	0.017602 
1759.080192  	0.016711 
1761.009008  	0.016009 
1762.937824  	0.015497 
1764.866640  	0.015349 
1766.795456  	0.014309 
1768.724272  	0.013862 
1770.653088  	0.012676 
1772.581904  	0.012441 
1774.510720  	0.012801 
1776.439536  	0.013026 
1778.368352  	0.012816 
1780.297168  	0.012705 
1782.225984  	0.012483 
1784.154800  	0.012342 
1786.083616  	0.012295 
1788.012432  	0.012179 
1789.941248  	0.011167 
1791.870064  	0.010850 
1793.798880  	0.011298 
1795.727696  	0.011642 
1797.656512  	0.011053 
1799.585328  	0.010585 
1801.514144  	0.010386 
1803.442960  	0.010581 
1805.371776  	0.010441 
1807.300592  	0.010295 
1809.229408  	0.009802 
1811.158224  	0.009970 
1813.087040  	0.010085 
1815.015856  	0.009925 
1816.944672  	0.009595 
1818.873488  	0.010098 
1820.802304  	0.010201 
1822.731120  	0.009963 
1824.659936  	0.009224 
1826.588752  	0.009445 
1828.517568  	0.009092 
1830.446384  	0.009581 
1832.375200  	0.009961 
1834.304016  	0.009802 
1836.232832  	0.009640 
1838.161648  	0.009964 
1840.090464  	0.009729 
1842.019280  	0.009130 
1843.948096  	0.008636 
1845.876912  	0.009352 
1847.805728  	0.009476 
1849.734544  	0.009806 
1851.663360  	0.009742 
1853.592176  	0.009877 
1855.520992  	0.009758 
1857.449808  	0.010004 
1859.378624  	0.009665 
1861.307440  	0.009558 
1863.236256  	0.009238 
1865.165072  	0.009173 
1867.093888  	0.009010 
1869.022704  	0.009487 
1870.951520  	0.009597 
1872.880336  	0.009769 
1874.809152  	0.009278 
1876.737968  	0.009330 
1878.666784  	0.009107 
1880.595600  	0.009264 
1882.524416  	0.009430 
1884.453232  	0.009292 
1886.382048  	0.008912 
1888.310864  	0.008935 
1890.239680  	0.009251 
1892.168496  	0.009538 
1894.097312  	0.009052 
1896.026128  	0.009370 
1897.954944  	0.009368 
1899.883760  	0.009237 
1901.812576  	0.009027 
1903.741392  	0.009367 
1905.670208  	0.009334 
1907.599024  	0.009194 
1909.527840  	0.008810 
1911.456656  	0.009201 
1913.385472  	0.009586 
1915.314288  	0.009923 
1917.243104  	0.009071 
1919.171920  	0.009203 
1921.100736  	0.009541 
1923.029552  	0.009960 
1924.958368  	0.009385 
1926.887184  	0.009322 
1928.816000  	0.009120 
1930.744816  	0.009153 
1932.673632  	0.008860 
1934.602448  	0.009434 
1936.531264  	0.009796 
1938.460080  	0.009697 
1940.388896  	0.008837 
1942.317712  	0.008636 
1944.246528  	0.008968 
1946.175344  	0.009896 
1948.104160  	0.009173 
1950.032976  	0.009279 
1951.961792  	0.009452 
1953.890608  	0.010086 
1955.819424  	0.009507 
1957.748240  	0.009478 
1959.677056  	0.009341 
1961.605872  	0.008640 
1963.534688  	0.007776 
1965.463504  	0.009347 
1967.392320  	0.009206 
1969.321136  	0.008330 
1971.249952  	0.008260 
1973.178768  	0.009782 
1975.107584  	0.008735 
1977.036400  	0.009075 
1978.965216  	0.010706 
1980.894032  	0.011366 
1982.822848  	0.009940 
1984.751664  	0.010040 
1986.680480  	0.010209 
1988.609296  	0.010401 
1990.538112  	0.010165 
1992.466928  	0.010327 
1994.395744  	0.009671 
1996.324560  	0.009776 
1998.253376  	0.009351 
2000.182192  	0.009110 
2002.111008  	0.009574 
2004.039824  	0.009650 
2005.968640  	0.008199 
2007.897456  	0.008965 
2009.826272  	0.008885 
2011.755088  	0.008435 
2013.683904  	0.009554 
2015.612720  	0.011066 
2017.541536  	0.009706 
2019.470352  	0.008964 
2021.399168  	0.008321 
2023.327984  	0.009327 
2025.256800  	0.009921 
2027.185616  	0.010069 
2029.114432  	0.009612 
2031.043248  	0.010129 
2032.972064  	0.009704 
2034.900880  	0.010096 
2036.829696  	0.010357 
2038.758512  	0.010610 
2040.687328  	0.010222 
2042.616144  	0.009466 
2044.544960  	0.009056 
2046.473776  	0.009982 
2048.402592  	0.009933 
2050.331408  	0.011233 
2052.260224  	0.011039 
2054.189040  	0.010426 
2056.117856  	0.009293 
2058.046672  	0.009342 
2059.975488  	0.009242 
2061.904304  	0.010079 
2063.833120  	0.011090 
2065.761936  	0.010957 
2067.690752  	0.009810 
2069.619568  	0.009210 
2071.548384  	0.008609 
2073.477200  	0.009085 
2075.406016  	0.009654 
2077.334832  	0.010209 
2079.263648  	0.009884 
2081.192464  	0.009792 
2083.121280  	0.010149 
2085.050096  	0.010282 
2086.978912  	0.009875 
2088.907728  	0.009896 
2090.836544  	0.009432 
2092.765360  	0.008745 
2094.694176  	0.008771 
2096.622992  	0.009310 
2098.551808  	0.009169 
2100.480624  	0.009271 
2102.409440  	0.009301 
2104.338256  	0.010273 
2106.267072  	0.010752 
2108.195888  	0.010634 
2110.124704  	0.010881 
2112.053520  	0.011316 
2113.982336  	0.010927 
2115.911152  	0.010839 
2117.839968  	0.010213 
2119.768784  	0.009898 
2121.697600  	0.009702 
2123.626416  	0.009042 
2125.555232  	0.008973 
2127.484048  	0.009588 
2129.412864  	0.009233 
2131.341680  	0.008323 
2133.270496  	0.008365 
2135.199312  	0.009379 
2137.128128  	0.009745 
2139.056944  	0.009834 
2140.985760  	0.008806 
2142.914576  	0.009273 
2144.843392  	0.009046 
2146.772208  	0.009629 
2148.701024  	0.009998 
2150.629840  	0.009523 
2152.558656  	0.008302 
2154.487472  	0.007735 
2156.416288  	0.007064 
2158.345104  	0.010284 
2160.273920  	0.013748 
2162.202736  	0.012942 
2164.131552  	0.011750 
2166.060368  	0.012843 
2167.989184  	0.012062 
2169.918000  	0.010780 
2171.846816  	0.009870 
2173.775632  	0.010256 
2175.704448  	0.011079 
2177.633264  	0.012023 
2179.562080  	0.010763 
2181.490896  	0.010106 
2183.419712  	0.010780 
2185.348528  	0.011702 
2187.277344  	0.011556 
2189.206160  	0.011541 
2191.134976  	0.011832 
2193.063792  	0.012629 
2194.992608  	0.012331 
2196.921424  	0.010945 
2198.850240  	0.010812 
2200.779056  	0.011457 
2202.707872  	0.011635 
2204.636688  	0.011714 
2206.565504  	0.011771 
2208.494320  	0.011872 
2210.423136  	0.010576 
2212.351952  	0.010945 
2214.280768  	0.011246 
2216.209584  	0.010631 
2218.138400  	0.010732 
2220.067216  	0.011141 
2221.996032  	0.011091 
2223.924848  	0.010607 
2225.853664  	0.010664 
2227.782480  	0.011050 
2229.711296  	0.011130 
2231.640112  	0.011102 
2233.568928  	0.011019 
2235.497744  	0.011000 
2237.426560  	0.010306 
2239.355376  	0.010504 
2241.284192  	0.010442 
2243.213008  	0.010505 
2245.141824  	0.010491 
2247.070640  	0.010381 
2248.999456  	0.010225 
2250.928272  	0.010493 
2252.857088  	0.010758 
2254.785904  	0.010614 
2256.714720  	0.010780 
2258.643536  	0.011222 
2260.572352  	0.010900 
2262.501168  	0.010989 
2264.429984  	0.011434 
2266.358800  	0.011944 
2268.287616  	0.011493 
2270.216432  	0.011436 
2272.145248  	0.011567 
2274.074064  	0.011666 
2276.002880  	0.011484 
2277.931696  	0.011897 
2279.860512  	0.012232 
2281.789328  	0.012125 
2283.718144  	0.011874 
2285.646960  	0.012273 
2287.575776  	0.012722 
2289.504592  	0.012634 
2291.433408  	0.012305 
2293.362224  	0.012400 
2295.291040  	0.012776 
2297.219856  	0.013043 
2299.148672  	0.013021 
2301.077488  	0.013222 
2303.006304  	0.013509 
2304.935120  	0.013469 
2306.863936  	0.013543 
2308.792752  	0.014014 
2310.721568  	0.014471 
2312.650384  	0.014864 
2314.579200  	0.015266 
2316.508016  	0.015626 
2318.436832  	0.015913 
2320.365648  	0.016548 
2322.294464  	0.017095 
2324.223280  	0.017229 
2326.152096  	0.016504 
2328.080912  	0.016100 
2330.009728  	0.016325 
2331.938544  	0.016612 
2333.867360  	0.016109 
2335.796176  	0.015896 
2337.724992  	0.015950 
2339.653808  	0.016068 
2341.582624  	0.016139 
2343.511440  	0.016824 
2345.440256  	0.016889 
2347.369072  	0.015917 
2349.297888  	0.014980 
2351.226704  	0.015126 
2353.155520  	0.016201 
2355.084336  	0.017087 
2357.013152  	0.017637 
2358.941968  	0.018054 
2360.870784  	0.017840 
2362.799600  	0.017983 
2364.728416  	0.017603 
2366.657232  	0.017063 
2368.586048  	0.016091 
2370.514864  	0.015652 
2372.443680  	0.015193 
2374.372496  	0.014907 
2376.301312  	0.014597 
2378.230128  	0.014295 
2380.158944  	0.013560 
2382.087760  	0.012849 
2384.016576  	0.012329 
2385.945392  	0.012096 
2387.874208  	0.011680 
2389.803024  	0.011405 
2391.731840  	0.011400 
2393.660656  	0.011578 
2395.589472  	0.011691 
2397.518288  	0.011736 
2399.447104  	0.011641 
2401.375920  	0.011590 
2403.304736  	0.011629 
2405.233552  	0.011860 
2407.162368  	0.012041 
2409.091184  	0.012026 
2411.020000  	0.012000 
2412.948816  	0.012218 
2414.877632  	0.012220 
2416.806448  	0.012303 
2418.735264  	0.012473 
2420.664080  	0.012371 
2422.592896  	0.012007 
2424.521712  	0.012105 
2426.450528  	0.012251 
2428.379344  	0.012124 
2430.308160  	0.012154 
2432.236976  	0.012287 
2434.165792  	0.012721 
2436.094608  	0.013137 
2438.023424  	0.013136 
2439.952240  	0.013289 
2441.881056  	0.013300 
2443.809872  	0.013253 
2445.738688  	0.013205 
2447.667504  	0.013337 
2449.596320  	0.013358 
2451.525136  	0.013345 
2453.453952  	0.013276 
2455.382768  	0.013570 
2457.311584  	0.013836 
2459.240400  	0.013807 
2461.169216  	0.013635 
2463.098032  	0.013528 
2465.026848  	0.013501 
2466.955664  	0.013548 
2468.884480  	0.013493 
2470.813296  	0.013660 
2472.742112  	0.013593 
2474.670928  	0.013610 
2476.599744  	0.013741 
2478.528560  	0.013863 
2480.457376  	0.014066 
2482.386192  	0.014076 
2484.315008  	0.014005 
2486.243824  	0.014034 
2488.172640  	0.013990 
2490.101456  	0.014086 
2492.030272  	0.014385 
2493.959088  	0.014346 
2495.887904  	0.014081 
2497.816720  	0.014229 
2499.745536  	0.014416 
2501.674352  	0.014511 
2503.603168  	0.014348 
2505.531984  	0.014493 
2507.460800  	0.014845 
2509.389616  	0.014805 
2511.318432  	0.014547 
2513.247248  	0.014700 
2515.176064  	0.014874 
2517.104880  	0.015147 
2519.033696  	0.015321 
2520.962512  	0.015277 
2522.891328  	0.015227 
2524.820144  	0.015305 
2526.748960  	0.015543 
2528.677776  	0.015642 
2530.606592  	0.015434 
2532.535408  	0.015565 
2534.464224  	0.015867 
2536.393040  	0.015926 
2538.321856  	0.015601 
2540.250672  	0.015765 
2542.179488  	0.015907 
2544.108304  	0.016026 
2546.037120  	0.015986 
2547.965936  	0.016169 
2549.894752  	0.016409 
2551.823568  	0.016448 
2553.752384  	0.016428 
2555.681200  	0.016538 
2557.610016  	0.016650 
2559.538832  	0.016625 
2561.467648  	0.016574 
2563.396464  	0.016932 
2565.325280  	0.017247 
2567.254096  	0.017325 
2569.182912  	0.017146 
2571.111728  	0.017013 
2573.040544  	0.016946 
2574.969360  	0.017066 
2576.898176  	0.017258 
2578.826992  	0.017563 
2580.755808  	0.017658 
2582.684624  	0.017670 
2584.613440  	0.017535 
2586.542256  	0.017630 
2588.471072  	0.017731 
2590.399888  	0.017734 
2592.328704  	0.017882 
2594.257520  	0.018225 
2596.186336  	0.018503 
2598.115152  	0.018468 
2600.043968  	0.018260 
2601.972784  	0.018454 
2603.901600  	0.018639 
2605.830416  	0.018630 
2607.759232  	0.018719 
2609.688048  	0.018927 
2611.616864  	0.018998 
2613.545680  	0.018972 
2615.474496  	0.018976 
2617.403312  	0.019112 
2619.332128  	0.019389 
2621.260944  	0.019570 
2623.189760  	0.019549 
2625.118576  	0.019596 
2627.047392  	0.019711 
2628.976208  	0.020056 
2630.905024  	0.020200 
2632.833840  	0.020363 
2634.762656  	0.020478 
2636.691472  	0.020463 
2638.620288  	0.020487 
2640.549104  	0.020603 
2642.477920  	0.020723 
2644.406736  	0.020825 
2646.335552  	0.021016 
2648.264368  	0.021293 
2650.193184  	0.021484 
2652.122000  	0.021611 
2654.050816  	0.021724 
2655.979632  	0.021745 
2657.908448  	0.021772 
2659.837264  	0.021815 
2661.766080  	0.021762 
2663.694896  	0.021795 
2665.623712  	0.021816 
2667.552528  	0.021905 
2669.481344  	0.022179 
2671.410160  	0.022394 
2673.338976  	0.022459 
2675.267792  	0.022623 
2677.196608  	0.022751 
2679.125424  	0.022935 
2681.054240  	0.022953 
2682.983056  	0.022998 
2684.911872  	0.023220 
2686.840688  	0.023321 
2688.769504  	0.023357 
2690.698320  	0.023452 
2692.627136  	0.023640 
2694.555952  	0.023764 
2696.484768  	0.023667 
2698.413584  	0.023759 
2700.342400  	0.023978 
2702.271216  	0.024145 
2704.200032  	0.024368 
2706.128848  	0.024545 
2708.057664  	0.024691 
2709.986480  	0.024690 
2711.915296  	0.024690 
2713.844112  	0.024829 
2715.772928  	0.025080 
2717.701744  	0.025313 
2719.630560  	0.025408 
2721.559376  	0.025441 
2723.488192  	0.025564 
2725.417008  	0.025834 
2727.345824  	0.025960 
2729.274640  	0.026027 
2731.203456  	0.026132 
2733.132272  	0.026330 
2735.061088  	0.026584 
2736.989904  	0.026741 
2738.918720  	0.026798 
2740.847536  	0.026823 
2742.776352  	0.026943 
2744.705168  	0.027137 
2746.633984  	0.027184 
2748.562800  	0.027301 
2750.491616  	0.027439 
2752.420432  	0.027468 
2754.349248  	0.027438 
2756.278064  	0.027643 
2758.206880  	0.027814 
2760.135696  	0.027990 
2762.064512  	0.028039 
2763.993328  	0.028016 
2765.922144  	0.028033 
2767.850960  	0.028113 
2769.779776  	0.028191 
2771.708592  	0.028276 
2773.637408  	0.028290 
2775.566224  	0.028368 
2777.495040  	0.028485 
2779.423856  	0.028606 
2781.352672  	0.028730 
2783.281488  	0.028876 
2785.210304  	0.028971 
2787.139120  	0.029081 
2789.067936  	0.029184 
2790.996752  	0.029264 
2792.925568  	0.029362 
2794.854384  	0.029525 
2796.783200  	0.029638 
2798.712016  	0.029604 
2800.640832  	0.029683 
2802.569648  	0.029858 
2804.498464  	0.030011 
2806.427280  	0.030179 
2808.356096  	0.030320 
2810.284912  	0.030457 
2812.213728  	0.030585 
2814.142544  	0.030697 
2816.071360  	0.030869 
2818.000176  	0.030949 
2819.928992  	0.030991 
2821.857808  	0.031189 
2823.786624  	0.031384 
2825.715440  	0.031436 
2827.644256  	0.031408 
2829.573072  	0.031460 
2831.501888  	0.031525 
2833.430704  	0.031590 
2835.359520  	0.031662 
2837.288336  	0.031775 
2839.217152  	0.032007 
2841.145968  	0.032171 
2843.074784  	0.032346 
2845.003600  	0.032667 
2846.932416  	0.033028 
2848.861232  	0.033439 
2850.790048  	0.033868 
2852.718864  	0.034225 
2854.647680  	0.034505 
2856.576496  	0.034838 
2858.505312  	0.035177 
2860.434128  	0.035631 
2862.362944  	0.036126 
2864.291760  	0.036603 
2866.220576  	0.037100 
2868.149392  	0.037766 
2870.078208  	0.038494 
2872.007024  	0.039108 
2873.935840  	0.039596 
2875.864656  	0.040322 
2877.793472  	0.041267 
2879.722288  	0.042206 
2881.651104  	0.043185 
2883.579920  	0.043915 
2885.508736  	0.044297 
2887.437552  	0.044443 
2889.366368  	0.044667 
2891.295184  	0.044997 
2893.224000  	0.045190 
2895.152816  	0.045474 
2897.081632  	0.045688 
2899.010448  	0.046576 
2900.939264  	0.047617 
2902.868080  	0.047207 
2904.796896  	0.046780 
2906.725712  	0.046800 
2908.654528  	0.046921 
2910.583344  	0.047254 
2912.512160  	0.047499 
2914.440976  	0.047623 
2916.369792  	0.047807 
2918.298608  	0.048269 
2920.227424  	0.048811 
2922.156240  	0.049246 
2924.085056  	0.049492 
2926.013872  	0.049916 
2927.942688  	0.050406 
2929.871504  	0.050855 
2931.800320  	0.051300 
2933.729136  	0.051558 
2935.657952  	0.051747 
2937.586768  	0.052306 
2939.515584  	0.052712 
2941.444400  	0.053029 
2943.373216  	0.053464 
2945.302032  	0.053708 
2947.230848  	0.053779 
2949.159664  	0.053994 
2951.088480  	0.054384 
2953.017296  	0.054809 
2954.946112  	0.054984 
2956.874928  	0.055106 
2958.803744  	0.055218 
2960.732560  	0.055311 
2962.661376  	0.055494 
2964.590192  	0.055792 
2966.519008  	0.056135 
2968.447824  	0.056328 
2970.376640  	0.056483 
2972.305456  	0.056383 
2974.234272  	0.056044 
2976.163088  	0.055722 
2978.091904  	0.055409 
2980.020720  	0.055139 
2981.949536  	0.054883 
2983.878352  	0.054773 
2985.807168  	0.055200 
2987.735984  	0.055727 
2989.664800  	0.055382 
2991.593616  	0.053790 
2993.522432  	0.052880 
2995.451248  	0.052752 
2997.380064  	0.052509 
2999.308880  	0.052170 
3001.237696  	0.051643 
3003.166512  	0.051031 
3005.095328  	0.050608 
3007.024144  	0.050335 
3008.952960  	0.049787 
3010.881776  	0.049222 
3012.810592  	0.048894 
3014.739408  	0.048467 
3016.668224  	0.048158 
3018.597040  	0.047962 
3020.525856  	0.047522 
3022.454672  	0.047186 
3024.383488  	0.047157 
3026.312304  	0.046994 
3028.241120  	0.046650 
3030.169936  	0.046373 
3032.098752  	0.046596 
3034.027568  	0.046504 
3035.956384  	0.046174 
3037.885200  	0.046120 
3039.814016  	0.046380 
3041.742832  	0.046665 
3043.671648  	0.046753 
3045.600464  	0.046772 
3047.529280  	0.046871 
3049.458096  	0.047096 
3051.386912  	0.047247 
3053.315728  	0.047441 
3055.244544  	0.047857 
3057.173360  	0.048383 
3059.102176  	0.048674 
3061.030992  	0.048931 
3062.959808  	0.049301 
3064.888624  	0.049827 
3066.817440  	0.050419 
3068.746256  	0.050708 
3070.675072  	0.050934 
3072.603888  	0.051386 
3074.532704  	0.051859 
3076.461520  	0.052352 
3078.390336  	0.052561 
3080.319152  	0.052970 
3082.247968  	0.053609 
3084.176784  	0.054012 
3086.105600  	0.054163 
3088.034416  	0.054539 
3089.963232  	0.055036 
3091.892048  	0.055398 
3093.820864  	0.055675 
3095.749680  	0.056069 
3097.678496  	0.056379 
3099.607312  	0.056756 
3101.536128  	0.057149 
3103.464944  	0.057504 
3105.393760  	0.057939 
3107.322576  	0.058445 
3109.251392  	0.058866 
3111.180208  	0.059102 
3113.109024  	0.059244 
3115.037840  	0.059450 
3116.966656  	0.059913 
3118.895472  	0.060313 
3120.824288  	0.060454 
3122.753104  	0.060679 
3124.681920  	0.061079 
3126.610736  	0.061357 
3128.539552  	0.061624 
3130.468368  	0.061744 
3132.397184  	0.061883 
3134.326000  	0.062171 
3136.254816  	0.062503 
3138.183632  	0.062802 
3140.112448  	0.063028 
3142.041264  	0.063307 
3143.970080  	0.063554 
3145.898896  	0.063728 
3147.827712  	0.064091 
3149.756528  	0.064469 
3151.685344  	0.064829 
3153.614160  	0.065220 
3155.542976  	0.065438 
3157.471792  	0.065681 
3159.400608  	0.066274 
3161.329424  	0.066764 
3163.258240  	0.067099 
3165.187056  	0.067349 
3167.115872  	0.067634 
3169.044688  	0.067728 
3170.973504  	0.067713 
3172.902320  	0.067990 
3174.831136  	0.068156 
3176.759952  	0.068379 
3178.688768  	0.068787 
3180.617584  	0.069008 
3182.546400  	0.068887 
3184.475216  	0.069116 
3186.404032  	0.069367 
3188.332848  	0.069493 
3190.261664  	0.069820 
3192.190480  	0.069828 
3194.119296  	0.069502 
3196.048112  	0.069468 
3197.976928  	0.069841 
3199.905744  	0.069819 
3201.834560  	0.069701 
3203.763376  	0.069796 
3205.692192  	0.069871 
3207.621008  	0.069772 
3209.549824  	0.069438 
3211.478640  	0.069296 
3213.407456  	0.069241 
3215.336272  	0.069126 
3217.265088  	0.068938 
3219.193904  	0.068573 
3221.122720  	0.068210 
3223.051536  	0.068259 
3224.980352  	0.068217 
3226.909168  	0.067955 
3228.837984  	0.067632 
3230.766800  	0.067604 
3232.695616  	0.067728 
3234.624432  	0.067527 
3236.553248  	0.067390 
3238.482064  	0.067350 
3240.410880  	0.067124 
3242.339696  	0.067026 
3244.268512  	0.067127 
3246.197328  	0.067155 
3248.126144  	0.067135 
3250.054960  	0.067090 
3251.983776  	0.067054 
3253.912592  	0.067111 
3255.841408  	0.067201 
3257.770224  	0.067291 
3259.699040  	0.067380 
3261.627856  	0.067637 
3263.556672  	0.067804 
3265.485488  	0.067767 
3267.414304  	0.067806 
3269.343120  	0.067855 
3271.271936  	0.068150 
3273.200752  	0.068488 
3275.129568  	0.068598 
3277.058384  	0.068374 
3278.987200  	0.068421 
3280.916016  	0.068569 
3282.844832  	0.068577 
3284.773648  	0.068775 
3286.702464  	0.069110 
3288.631280  	0.069323 
3290.560096  	0.069539 
3292.488912  	0.069727 
3294.417728  	0.069782 
3296.346544  	0.069840 
3298.275360  	0.069926 
3300.204176  	0.070267 
3302.132992  	0.070609 
3304.061808  	0.070706 
3305.990624  	0.071025 
3307.919440  	0.071205 
3309.848256  	0.071299 
3311.777072  	0.071495 
3313.705888  	0.071710 
3315.634704  	0.072032 
3317.563520  	0.072344 
3319.492336  	0.072653 
3321.421152  	0.072782 
3323.349968  	0.072744 
3325.278784  	0.072796 
3327.207600  	0.072993 
3329.136416  	0.072997 
3331.065232  	0.072986 
3332.994048  	0.073044 
3334.922864  	0.072865 
3336.851680  	0.072717 
3338.780496  	0.072780 
3340.709312  	0.072783 
3342.638128  	0.072658 
3344.566944  	0.072573 
3346.495760  	0.072420 
3348.424576  	0.072322 
3350.353392  	0.072225 
3352.282208  	0.071961 
3354.211024  	0.071644 
3356.139840  	0.071454 
3358.068656  	0.071222 
3359.997472  	0.070962 
3361.926288  	0.070728 
3363.855104  	0.070435 
3365.783920  	0.070076 
3367.712736  	0.069890 
3369.641552  	0.069570 
3371.570368  	0.069220 
3373.499184  	0.068896 
3375.428000  	0.068509 
3377.356816  	0.068294 
3379.285632  	0.068062 
3381.214448  	0.067765 
3383.143264  	0.067436 
3385.072080  	0.067371 
3387.000896  	0.067102 
3388.929712  	0.066703 
3390.858528  	0.066349 
3392.787344  	0.065958 
3394.716160  	0.065565 
3396.644976  	0.065329 
3398.573792  	0.064986 
3400.502608  	0.064423 
3402.431424  	0.064099 
3404.360240  	0.063766 
3406.289056  	0.063366 
3408.217872  	0.062996 
3410.146688  	0.062697 
3412.075504  	0.062738 
3414.004320  	0.062632 
3415.933136  	0.062187 
3417.861952  	0.061565 
3419.790768  	0.061147 
3421.719584  	0.060824 
3423.648400  	0.060360 
3425.577216  	0.060194 
3427.506032  	0.059911 
3429.434848  	0.059229 
3431.363664  	0.058725 
3433.292480  	0.058584 
3435.221296  	0.058421 
3437.150112  	0.058167 
3439.078928  	0.057924 
3441.007744  	0.057436 
3442.936560  	0.056895 
3444.865376  	0.056290 
3446.794192  	0.055570 
3448.723008  	0.055448 
3450.651824  	0.055304 
3452.580640  	0.054835 
3454.509456  	0.054336 
3456.438272  	0.053780 
3458.367088  	0.053479 
3460.295904  	0.053301 
3462.224720  	0.052747 
3464.153536  	0.051933 
3466.082352  	0.051510 
3468.011168  	0.051254 
3469.939984  	0.050777 
3471.868800  	0.050169 
3473.797616  	0.049738 
3475.726432  	0.049121 
3477.655248  	0.048380 
3479.584064  	0.047822 
3481.512880  	0.047399 
3483.441696  	0.046856 
3485.370512  	0.046148 
3487.299328  	0.045667 
3489.228144  	0.045396 
3491.156960  	0.044783 
3493.085776  	0.044267 
3495.014592  	0.043812 
3496.943408  	0.043401 
3498.872224  	0.042777 
3500.801040  	0.042098 
3502.729856  	0.041655 
3504.658672  	0.041264 
3506.587488  	0.040652 
3508.516304  	0.040172 
3510.445120  	0.040001 
3512.373936  	0.039835 
3514.302752  	0.039409 
3516.231568  	0.038958 
3518.160384  	0.038466 
3520.089200  	0.037980 
3522.018016  	0.037353 
3523.946832  	0.036804 
3525.875648  	0.036514 
3527.804464  	0.036197 
3529.733280  	0.036086 
3531.662096  	0.035771 
3533.590912  	0.035225 
3535.519728  	0.034930 
3537.448544  	0.034870 
3539.377360  	0.034467 
3541.306176  	0.033764 
3543.234992  	0.033078 
3545.163808  	0.032688 
3547.092624  	0.032515 
3549.021440  	0.032025 
3550.950256  	0.031445 
3552.879072  	0.031623 
3554.807888  	0.031632 
3556.736704  	0.030937 
3558.665520  	0.030348 
3560.594336  	0.030123 
3562.523152  	0.029714 
3564.451968  	0.028586 
3566.380784  	0.027532 
3568.309600  	0.028121 
3570.238416  	0.028283 
3572.167232  	0.027610 
3574.096048  	0.027097 
3576.024864  	0.026673 
3577.953680  	0.026139 
3579.882496  	0.025987 
3581.811312  	0.025781 
3583.740128  	0.024947 
3585.668944  	0.023772 
3587.597760  	0.023377 
3589.526576  	0.023719 
3591.455392  	0.022978 
3593.384208  	0.022345 
3595.313024  	0.022138 
3597.241840  	0.021651 
3599.170656  	0.021043 
3601.099472  	0.020794 
3603.028288  	0.020625 
3604.957104  	0.019915 
3606.885920  	0.018826 
3608.814736  	0.018636 
3610.743552  	0.018078 
3612.672368  	0.016929 
3614.601184  	0.016700 
3616.530000  	0.016000 
3618.458816  	0.015346 
3620.387632  	0.015955 
3622.316448  	0.015947 
3624.245264  	0.015373 
3626.174080  	0.014064 
3628.102896  	0.012959 
3630.031712  	0.014408 
3631.960528  	0.014297 
3633.889344  	0.013455 
3635.818160  	0.012874 
3637.746976  	0.012451 
3639.675792  	0.012368 
3641.604608  	0.012091 
3643.533424  	0.011630 
3645.462240  	0.010192 
3647.391056  	0.008585 
3649.319872  	0.008489 
3651.248688  	0.010287 
3653.177504  	0.010782 
3655.106320  	0.009875 
3657.035136  	0.010296 
3658.963952  	0.010707 
3660.892768  	0.010279 
3662.821584  	0.009813 
3664.750400  	0.009499 
3666.679216  	0.008607 
3668.608032  	0.007056 
3670.536848  	0.007315 
3672.465664  	0.007494 
3674.394480  	0.006083 
3676.323296  	0.007656 
3678.252112  	0.007842 
3680.180928  	0.007440 
3682.109744  	0.007635 
3684.038560  	0.007514 
3685.967376  	0.006536 
3687.896192  	0.005349 
3689.825008  	0.005821 
3691.753824  	0.006722 
3693.682640  	0.006932 
3695.611456  	0.006494 
3697.540272  	0.006140 
3699.469088  	0.005365 
3701.397904  	0.005105 
3703.326720  	0.005502 
3705.255536  	0.005112 
3707.184352  	0.004008 
3709.113168  	0.002922 
3711.041984  	0.002581 
3712.970800  	0.003585 
3714.899616  	0.004180 
3716.828432  	0.003930 
3718.757248  	0.003371 
3720.686064  	0.003142 
3722.614880  	0.003451 
3724.543696  	0.003579 
3726.472512  	0.003895 
3728.401328  	0.003840 
3730.330144  	0.002515 
3732.258960  	0.001676 
3734.187776  	0.001687 
3736.116592  	0.002849 
3738.045408  	0.003071 
3739.974224  	0.002445 
3741.903040  	0.001622 
3743.831856  	0.001484 
3745.760672  	0.003222 
3747.689488  	0.001790 
3749.618304  	0.000521 
3751.547120  	0.001813 
3753.475936  	0.003772 
3755.404752  	0.003303 
3757.333568  	0.002315 
3759.262384  	0.002514 
3761.191200  	0.003599 
3763.120016  	0.003383 
3765.048832  	0.002833 
3766.977648  	0.003010 
3768.906464  	0.002839 
3770.835280  	0.003511 
3772.764096  	0.003988 
3774.692912  	0.003819 
3776.621728  	0.003214 
3778.550544  	0.002819 
3780.479360  	0.003452 
3782.408176  	0.003530 
3784.336992  	0.003237 
3786.265808  	0.003456 
3788.194624  	0.003755 
3790.123440  	0.003713 
3792.052256  	0.003494 
3793.981072  	0.003071 
3795.909888  	0.002688 
3797.838704  	0.002706 
3799.767520  	0.001769 
3801.696336  	0.002201 
3803.625152  	0.002982 
3805.553968  	0.002235 
3807.482784  	0.002985 
3809.411600  	0.003814 
3811.340416  	0.003718 
3813.269232  	0.003029 
3815.198048  	0.002031 
3817.126864  	0.002541 
3819.055680  	0.001648 
3820.984496  	0.001759 
3822.913312  	0.003527 
3824.842128  	0.003130 
3826.770944  	0.002921 
3828.699760  	0.003036 
3830.628576  	0.002556 
3832.557392  	0.002706 
3834.486208  	0.002372 
3836.415024  	0.001788 
3838.343840  	0.002087 
3840.272656  	0.002606 
3842.201472  	0.002808 
3844.130288  	0.003048 
3846.059104  	0.003446 
3847.987920  	0.003149 
3849.916736  	0.002135 
3851.845552  	0.000570 
3853.774368  	0.002105 
3855.703184  	0.003682 
3857.632000  	0.003350 
3859.560816  	0.003042 
3861.489632  	0.002588 
3863.418448  	0.002376 
3865.347264  	0.002926 
3867.276080  	0.002645 
3869.204896  	0.001977 
3871.133712  	0.003201 
3873.062528  	0.002886 
3874.991344  	0.003379 
3876.920160  	0.003405 
3878.848976  	0.002543 
3880.777792  	0.002802 
3882.706608  	0.003241 
3884.635424  	0.002757 
3886.564240  	0.003613 
3888.493056  	0.003487 
3890.421872  	0.002942 
3892.350688  	0.003503 
3894.279504  	0.003635 
3896.208320  	0.003254 
3898.137136  	0.002702 
3900.065952  	0.002448 
3901.994768  	0.002435 
3903.923584  	0.003062 
3905.852400  	0.003913 
3907.781216  	0.004026 
3909.710032  	0.003821 
3911.638848  	0.003657 
3913.567664  	0.003559 
3915.496480  	0.003362 
3917.425296  	0.003733 
3919.354112  	0.003905 
3921.282928  	0.003865 
3923.211744  	0.003604 
3925.140560  	0.003753 
3927.069376  	0.003759 
3928.998192  	0.003425 
3930.927008  	0.003553 
3932.855824  	0.003854 
3934.784640  	0.004003 
3936.713456  	0.004016 
3938.642272  	0.003812 
3940.571088  	0.003504 
3942.499904  	0.003722 
3944.428720  	0.004155 
3946.357536  	0.003907 
3948.286352  	0.003618 
3950.215168  	0.003578 
3952.143984  	0.003651 
3954.072800  	0.003614 
3956.001616  	0.003608 
3957.930432  	0.003861 
3959.859248  	0.004013 
3961.788064  	0.003963 
3963.716880  	0.004152 
3965.645696  	0.004140 
3967.574512  	0.004033 
3969.503328  	0.003950 
3971.432144  	0.003927 
3973.360960  	0.003907 
3975.289776  	0.003979 
3977.218592  	0.004086 
3979.147408  	0.004127 
3981.076224  	0.003964 
3983.005040  	0.003863 
3984.933856  	0.003951 
3986.862672  	0.004123 
3988.791488  	0.004036 
3990.720304  	0.004060 
3992.649120  	0.004181 
3994.577936  	0.004041 
3996.506752  	0.003973 
3998.435568  	0.004180 
4000.364384  	0.004206 