##TITLE=No Description
##DATA TYPE=INFRARED SPECTRUM
##XUNITS=1/CM
##YUNITS=Abs
399.264912  	0.598471 
401.193728  	0.579155 
403.122544  	0.568429 
405.051360  	0.562927 
406.980176  	0.572392 
408.908992  	0.560802 
410.837808  	0.553876 
412.766624  	0.552134 
414.695440  	0.547557 
416.624256  	0.537430 
418.553072  	0.542499 
420.481888  	0.547191 
422.410704  	0.545892 
424.339520  	0.534230 
426.268336  	0.534220 
428.197152  	0.533598 
430.125968  	0.531170 
432.054784  	0.518302 
433.983600  	0.517133 
435.912416  	0.510475 
437.841232  	0.507003 
439.770048  	0.511804 
441.698864  	0.513179 
443.627680  	0.506711 
445.556496  	0.505858 
447.485312  	0.501424 
449.414128  	0.502224 
451.342944  	0.503448 
453.271760  	0.507477 
455.200576  	0.504548 
457.129392  	0.497609 
459.058208  	0.496451 
460.987024  	0.502016 
462.915840  	0.506240 
464.844656  	0.509130 
466.773472  	0.503951 
468.702288  	0.502103 
470.631104  	0.499911 
472.559920  	0.502679 
474.488736  	0.499587 
476.417552  	0.497135 
478.346368  	0.493829 
480.275184  	0.495415 
482.204000  	0.496419 
484.132816  	0.499228 
486.061632  	0.497159 
487.990448  	0.495583 
489.919264  	0.490776 
491.848080  	0.490468 
493.776896  	0.491140 
495.705712  	0.493434 
497.634528  	0.490760 
499.563344  	0.490076 
501.492160  	0.484980 
503.420976  	0.481821 
505.349792  	0.482322 
507.278608  	0.485485 
509.207424  	0.484665 
511.136240  	0.485848 
513.065056  	0.488507 
514.993872  	0.490395 
516.922688  	0.488535 
518.851504  	0.489207 
520.780320  	0.488399 
522.709136  	0.488118 
524.637952  	0.485709 
526.566768  	0.485592 
528.495584  	0.483969 
530.424400  	0.480484 
532.353216  	0.473874 
534.282032  	0.470596 
536.210848  	0.468006 
538.139664  	0.466456 
540.068480  	0.462139 
541.997296  	0.457685 
543.926112  	0.452188 
545.854928  	0.448803 
547.783744  	0.445013 
549.712560  	0.441025 
551.641376  	0.437714 
553.570192  	0.435412 
555.499008  	0.431834 
557.427824  	0.429293 
559.356640  	0.425400 
561.285456  	0.420866 
563.214272  	0.416278 
565.143088  	0.413903 
567.071904  	0.409975 
569.000720  	0.406654 
570.929536  	0.402941 
572.858352  	0.400477 
574.787168  	0.397638 
576.715984  	0.394805 
578.644800  	0.390803 
580.573616  	0.385955 
582.502432  	0.381357 
584.431248  	0.379512 
586.360064  	0.377323 
588.288880  	0.375231 
590.217696  	0.372317 
592.146512  	0.370749 
594.075328  	0.368641 
596.004144  	0.365969 
597.932960  	0.363945 
599.861776  	0.363289 
601.790592  	0.362434 
603.719408  	0.361296 
605.648224  	0.359749 
607.577040  	0.359245 
609.505856  	0.358487 
611.434672  	0.357266 
613.363488  	0.355284 
615.292304  	0.353848 
617.221120  	0.351931 
619.149936  	0.350481 
621.078752  	0.347983 
623.007568  	0.345748 
624.936384  	0.343831 
626.865200  	0.343043 
628.794016  	0.341689 
630.722832  	0.340539 
632.651648  	0.340414 
634.580464  	0.340328 
636.509280  	0.339980 
638.438096  	0.339086 
640.366912  	0.338263 
642.295728  	0.337310 
644.224544  	0.335228 
646.153360  	0.332673 
648.082176  	0.329359 
650.010992  	0.326641 
651.939808  	0.323103 
653.868624  	0.319231 
655.797440  	0.315408 
657.726256  	0.312597 
659.655072  	0.308635 
661.583888  	0.304364 
663.512704  	0.300544 
665.441520  	0.297659 
667.370336  	0.294391 
669.299152  	0.290148 
671.227968  	0.287829 
673.156784  	0.285203 
675.085600  	0.282991 
677.014416  	0.281568 
678.943232  	0.279854 
680.872048  	0.277784 
682.800864  	0.275741 
684.729680  	0.274777 
686.658496  	0.272852 
688.587312  	0.270655 
690.516128  	0.268787 
692.444944  	0.267729 
694.373760  	0.266134 
696.302576  	0.264511 
698.231392  	0.262236 
700.160208  	0.259563 
702.089024  	0.256644 
704.017840  	0.254817 
705.946656  	0.252781 
707.875472  	0.250596 
709.804288  	0.248343 
711.733104  	0.246811 
713.661920  	0.245523 
715.590736  	0.244986 
717.519552  	0.244365 
719.448368  	0.244373 
721.377184  	0.245603 
723.306000  	0.246632 
725.234816  	0.246461 
727.163632  	0.245225 
729.092448  	0.242547 
731.021264  	0.240134 
732.950080  	0.237910 
734.878896  	0.234809 
736.807712  	0.232169 
738.736528  	0.230642 
740.665344  	0.229091 
742.594160  	0.227909 
744.522976  	0.226560 
746.451792  	0.225315 
748.380608  	0.224258 
750.309424  	0.223799 
752.238240  	0.222959 
754.167056  	0.222187 
756.095872  	0.221823 
758.024688  	0.220817 
759.953504  	0.220107 
761.882320  	0.220410 
763.811136  	0.220834 
765.739952  	0.220402 
767.668768  	0.219330 
769.597584  	0.218270 
771.526400  	0.218078 
773.455216  	0.219668 
775.384032  	0.222456 
777.312848  	0.226428 
779.241664  	0.230384 
781.170480  	0.231468 
783.099296  	0.228617 
785.028112  	0.223328 
786.956928  	0.217294 
788.885744  	0.212488 
790.814560  	0.208810 
792.743376  	0.206556 
794.672192  	0.205133 
796.601008  	0.204433 
798.529824  	0.202967 
800.458640  	0.199791 
802.387456  	0.196217 
804.316272  	0.194515 
806.245088  	0.194040 
808.173904  	0.193702 
810.102720  	0.193708 
812.031536  	0.194077 
813.960352  	0.193986 
815.889168  	0.193855 
817.817984  	0.194070 
819.746800  	0.194119 
821.675616  	0.194007 
823.604432  	0.193653 
825.533248  	0.192806 
827.462064  	0.191713 
829.390880  	0.190693 
831.319696  	0.189456 
833.248512  	0.188122 
835.177328  	0.186404 
837.106144  	0.183789 
839.034960  	0.180838 
840.963776  	0.177930 
842.892592  	0.175517 
844.821408  	0.172802 
846.750224  	0.169966 
848.679040  	0.167785 
850.607856  	0.166299 
852.536672  	0.164882 
854.465488  	0.163444 
856.394304  	0.162066 
858.323120  	0.160884 
860.251936  	0.159852 
862.180752  	0.158519 
864.109568  	0.157205 
866.038384  	0.155833 
867.967200  	0.154250 
869.896016  	0.152991 
871.824832  	0.151734 
873.753648  	0.151182 
875.682464  	0.151353 
877.611280  	0.152122 
879.540096  	0.153001 
881.468912  	0.153515 
883.397728  	0.154061 
885.326544  	0.154287 
887.255360  	0.154063 
889.184176  	0.153630 
891.112992  	0.153107 
893.041808  	0.151365 
894.970624  	0.148689 
896.899440  	0.145708 
898.828256  	0.142324 
900.757072  	0.138968 
902.685888  	0.135864 
904.614704  	0.133892 
906.543520  	0.133525 
908.472336  	0.134260 
910.401152  	0.135974 
912.329968  	0.138591 
914.258784  	0.141314 
916.187600  	0.143841 
918.116416  	0.145707 
920.045232  	0.146576 
921.974048  	0.146252 
923.902864  	0.145218 
925.831680  	0.144007 
927.760496  	0.143017 
929.689312  	0.142229 
931.618128  	0.141949 
933.546944  	0.142128 
935.475760  	0.142240 
937.404576  	0.142384 
939.333392  	0.143096 
941.262208  	0.144517 
943.191024  	0.146895 
945.119840  	0.150622 
947.048656  	0.155571 
948.977472  	0.161708 
950.906288  	0.168799 
952.835104  	0.176605 
954.763920  	0.184165 
956.692736  	0.191240 
958.621552  	0.197250 
960.550368  	0.201030 
962.479184  	0.202584 
964.408000  	0.201143 
966.336816  	0.197104 
968.265632  	0.190485 
970.194448  	0.182102 
972.123264  	0.172456 
974.052080  	0.162375 
975.980896  	0.152536 
977.909712  	0.143386 
979.838528  	0.135683 
981.767344  	0.129511 
983.696160  	0.125192 
985.624976  	0.123171 
987.553792  	0.123597 
989.482608  	0.126085 
991.411424  	0.130408 
993.340240  	0.136451 
995.269056  	0.143679 
997.197872  	0.151238 
999.126688  	0.158791 
1001.055504  	0.166504 
1002.984320  	0.174145 
1004.913136  	0.181492 
1006.841952  	0.187808 
1008.770768  	0.193277 
1010.699584  	0.197674 
1012.628400  	0.201093 
1014.557216  	0.203470 
1016.486032  	0.205021 
1018.414848  	0.205928 
1020.343664  	0.206921 
1022.272480  	0.207622 
1024.201296  	0.208594 
1026.130112  	0.210568 
1028.058928  	0.212506 
1029.987744  	0.212737 
1031.916560  	0.215047 
1033.845376  	0.219055 
1035.774192  	0.224206 
1037.703008  	0.229786 
1039.631824  	0.236519 
1041.560640  	0.244709 
1043.489456  	0.255089 
1045.418272  	0.267556 
1047.347088  	0.282275 
1049.275904  	0.297006 
1051.204720  	0.310919 
1053.133536  	0.322037 
1055.062352  	0.331002 
1056.991168  	0.336717 
1058.919984  	0.338116 
1060.848800  	0.336536 
1062.777616  	0.336073 
1064.706432  	0.334957 
1066.635248  	0.331723 
1068.564064  	0.324321 
1070.492880  	0.317812 
1072.421696  	0.311724 
1074.350512  	0.306118 
1076.279328  	0.301028 
1078.208144  	0.297030 
1080.136960  	0.293571 
1082.065776  	0.290160 
1083.994592  	0.285792 
1085.923408  	0.281662 
1087.852224  	0.276530 
1089.781040  	0.270873 
1091.709856  	0.262789 
1093.638672  	0.254167 
1095.567488  	0.244554 
1097.496304  	0.234535 
1099.425120  	0.223952 
1101.353936  	0.213412 
1103.282752  	0.202323 
1105.211568  	0.191065 
1107.140384  	0.179829 
1109.069200  	0.169092 
1110.998016  	0.158866 
1112.926832  	0.149315 
1114.855648  	0.140218 
1116.784464  	0.131461 
1118.713280  	0.123612 
1120.642096  	0.116648 
1122.570912  	0.109995 
1124.499728  	0.103863 
1126.428544  	0.098205 
1128.357360  	0.092849 
1130.286176  	0.088074 
1132.214992  	0.084058 
1134.143808  	0.080707 
1136.072624  	0.077432 
1138.001440  	0.074237 
1139.930256  	0.071339 
1141.859072  	0.068752 
1143.787888  	0.066076 
1145.716704  	0.063896 
1147.645520  	0.062211 
1149.574336  	0.060910 
1151.503152  	0.060148 
1153.431968  	0.060100 
1155.360784  	0.060193 
1157.289600  	0.060566 
1159.218416  	0.061358 
1161.147232  	0.062616 
1163.076048  	0.063880 
1165.004864  	0.065562 
1166.933680  	0.067325 
1168.862496  	0.069352 
1170.791312  	0.071588 
1172.720128  	0.073963 
1174.648944  	0.076342 
1176.577760  	0.078932 
1178.506576  	0.081539 
1180.435392  	0.083990 
1182.364208  	0.086459 
1184.293024  	0.089276 
1186.221840  	0.092210 
1188.150656  	0.095493 
1190.079472  	0.099349 
1192.008288  	0.103828 
1193.937104  	0.109003 
1195.865920  	0.115041 
1197.794736  	0.121523 
1199.723552  	0.128361 
1201.652368  	0.135646 
1203.581184  	0.143167 
1205.510000  	0.150638 
1207.438816  	0.158102 
1209.367632  	0.165440 
1211.296448  	0.172063 
1213.225264  	0.178132 
1215.154080  	0.183516 
1217.082896  	0.187967 
1219.011712  	0.191403 
1220.940528  	0.194807 
1222.869344  	0.197436 
1224.798160  	0.199361 
1226.726976  	0.200515 
1228.655792  	0.201185 
1230.584608  	0.200895 
1232.513424  	0.199828 
1234.442240  	0.197289 
1236.371056  	0.193909 
1238.299872  	0.189736 
1240.228688  	0.185802 
1242.157504  	0.180596 
1244.086320  	0.173850 
1246.015136  	0.167033 
1247.943952  	0.160654 
1249.872768  	0.154034 
1251.801584  	0.146999 
1253.730400  	0.139871 
1255.659216  	0.133102 
1257.588032  	0.126711 
1259.516848  	0.120503 
1261.445664  	0.114664 
1263.374480  	0.109255 
1265.303296  	0.104272 
1267.232112  	0.100120 
1269.160928  	0.096902 
1271.089744  	0.094562 
1273.018560  	0.093315 
1274.947376  	0.092722 
1276.876192  	0.092216 
1278.805008  	0.091315 
1280.733824  	0.089567 
1282.662640  	0.086728 
1284.591456  	0.083187 
1286.520272  	0.079603 
1288.449088  	0.076703 
1290.377904  	0.074538 
1292.306720  	0.072892 
1294.235536  	0.070880 
1296.164352  	0.067921 
1298.093168  	0.064534 
1300.021984  	0.061156 
1301.950800  	0.057958 
1303.879616  	0.055164 
1305.808432  	0.052836 
1307.737248  	0.050849 
1309.666064  	0.049116 
1311.594880  	0.047995 
1313.523696  	0.047323 
1315.452512  	0.047045 
1317.381328  	0.047137 
1319.310144  	0.047794 
1321.238960  	0.048657 
1323.167776  	0.049652 
1325.096592  	0.050392 
1327.025408  	0.050563 
1328.954224  	0.050142 
1330.883040  	0.049498 
1332.811856  	0.048608 
1334.740672  	0.047599 
1336.669488  	0.046444 
1338.598304  	0.045603 
1340.527120  	0.045244 
1342.455936  	0.045281 
1344.384752  	0.045391 
1346.313568  	0.045990 
1348.242384  	0.047111 
1350.171200  	0.048779 
1352.100016  	0.050765 
1354.028832  	0.052816 
1355.957648  	0.055028 
1357.886464  	0.057282 
1359.815280  	0.059037 
1361.744096  	0.060666 
1363.672912  	0.062923 
1365.601728  	0.064760 
1367.530544  	0.065787 
1369.459360  	0.066643 
1371.388176  	0.066548 
1373.316992  	0.065473 
1375.245808  	0.064470 
1377.174624  	0.063433 
1379.103440  	0.061848 
1381.032256  	0.060364 
1382.961072  	0.059067 
1384.889888  	0.057671 
1386.818704  	0.055832 
1388.747520  	0.054533 
1390.676336  	0.053917 
1392.605152  	0.053908 
1394.533968  	0.053217 
1396.462784  	0.051760 
1398.391600  	0.051549 
1400.320416  	0.053120 
1402.249232  	0.054363 
1404.178048  	0.055559 
1406.106864  	0.057266 
1408.035680  	0.058988 
1409.964496  	0.060322 
1411.893312  	0.061697 
1413.822128  	0.062776 
1415.750944  	0.063180 
1417.679760  	0.062689 
1419.608576  	0.062504 
1421.537392  	0.062327 
1423.466208  	0.061082 
1425.395024  	0.059568 
1427.323840  	0.057657 
1429.252656  	0.055494 
1431.181472  	0.054329 
1433.110288  	0.053790 
1435.039104  	0.053184 
1436.967920  	0.053728 
1438.896736  	0.055167 
1440.825552  	0.055720 
1442.754368  	0.056165 
1444.683184  	0.056206 
1446.612000  	0.056053 
1448.540816  	0.056646 
1450.469632  	0.057295 
1452.398448  	0.057137 
1454.327264  	0.056414 
1456.256080  	0.054778 
1458.184896  	0.055365 
1460.113712  	0.056666 
1462.042528  	0.057213 
1463.971344  	0.057234 
1465.900160  	0.059153 
1467.828976  	0.061343 
1469.757792  	0.063322 
1471.686608  	0.065421 
1473.615424  	0.070374 
1475.544240  	0.074363 
1477.473056  	0.077894 
1479.401872  	0.079649 
1481.330688  	0.080465 
1483.259504  	0.080701 
1485.188320  	0.079900 
1487.117136  	0.077814 
1489.045952  	0.075317 
1490.974768  	0.072775 
1492.903584  	0.070376 
1494.832400  	0.066516 
1496.761216  	0.062113 
1498.690032  	0.058699 
1500.618848  	0.056193 
1502.547664  	0.053635 
1504.476480  	0.050268 
1506.405296  	0.046207 
1508.334112  	0.046106 
1510.262928  	0.046121 
1512.191744  	0.045464 
1514.120560  	0.044419 
1516.049376  	0.043700 
1517.978192  	0.044509 
1519.907008  	0.045086 
1521.835824  	0.047437 
1523.764640  	0.050977 
1525.693456  	0.053440 
1527.622272  	0.055902 
1529.551088  	0.057405 
1531.479904  	0.057168 
1533.408720  	0.056085 
1535.337536  	0.055668 
1537.266352  	0.052993 
1539.195168  	0.048394 
1541.123984  	0.046179 
1543.052800  	0.046093 
1544.981616  	0.045579 
1546.910432  	0.045263 
1548.839248  	0.044203 
1550.768064  	0.044260 
1552.696880  	0.044100 
1554.625696  	0.044254 
1556.554512  	0.043431 
1558.483328  	0.042675 
1560.412144  	0.049089 
1562.340960  	0.052601 
1564.269776  	0.054694 
1566.198592  	0.058434 
1568.127408  	0.061093 
1570.056224  	0.066116 
1571.985040  	0.071026 
1573.913856  	0.073137 
1575.842672  	0.074287 
1577.771488  	0.077032 
1579.700304  	0.077425 
1581.629120  	0.077269 
1583.557936  	0.077430 
1585.486752  	0.078944 
1587.415568  	0.081539 
1589.344384  	0.085612 
1591.273200  	0.090338 
1593.202016  	0.095943 
1595.130832  	0.101351 
1597.059648  	0.106907 
1598.988464  	0.111255 
1600.917280  	0.114701 
1602.846096  	0.116554 
1604.774912  	0.117696 
1606.703728  	0.117264 
1608.632544  	0.116668 
1610.561360  	0.115864 
1612.490176  	0.115566 
1614.418992  	0.114735 
1616.347808  	0.115419 
1618.276624  	0.118895 
1620.205440  	0.122748 
1622.134256  	0.126230 
1624.063072  	0.133257 
1625.991888  	0.139846 
1627.920704  	0.147148 
1629.849520  	0.155427 
1631.778336  	0.162530 
1633.707152  	0.167276 
1635.635968  	0.173906 
1637.564784  	0.181995 
1639.493600  	0.187123 
1641.422416  	0.190855 
1643.351232  	0.193415 
1645.280048  	0.193507 
1647.208864  	0.194097 
1649.137680  	0.195141 
1651.066496  	0.193695 
1652.995312  	0.189561 
1654.924128  	0.190497 
1656.852944  	0.189846 
1658.781760  	0.188011 
1660.710576  	0.185511 
1662.639392  	0.183005 
1664.568208  	0.181342 
1666.497024  	0.179394 
1668.425840  	0.176189 
1670.354656  	0.174039 
1672.283472  	0.173044 
1674.212288  	0.171694 
1676.141104  	0.171222 
1678.069920  	0.171504 
1679.998736  	0.171080 
1681.927552  	0.170221 
1683.856368  	0.168715 
1685.785184  	0.170483 
1687.714000  	0.170113 
1689.642816  	0.168804 
1691.571632  	0.167156 
1693.500448  	0.164484 
1695.429264  	0.160139 
1697.358080  	0.156713 
1699.286896  	0.152787 
1701.215712  	0.148528 
1703.144528  	0.145410 
1705.073344  	0.140510 
1707.002160  	0.135523 
1708.930976  	0.131035 
1710.859792  	0.125720 
1712.788608  	0.119512 
1714.717424  	0.112411 
1716.646240  	0.104566 
1718.575056  	0.097508 
1720.503872  	0.091795 
1722.432688  	0.085840 
1724.361504  	0.079098 
1726.290320  	0.073096 
1728.219136  	0.066927 
1730.147952  	0.061031 
1732.076768  	0.055411 
1734.005584  	0.049998 
1735.934400  	0.045643 
1737.863216  	0.042163 
1739.792032  	0.037598 
1741.720848  	0.034402 
1743.649664  	0.031378 
1745.578480  	0.028747 
1747.507296  	0.025686 
1749.436112  	0.023740 
1751.364928  	0.022720 
1753.293744  	0.022211 
1755.222560  	0.020519 
1757.151376  	0.019552 
1759.080192  	0.018596 
1761.009008  	0.017920 
1762.937824  	0.017731 
1764.866640  	0.017557 
1766.795456  	0.016400 
1768.724272  	0.015825 
1770.653088  	0.014384 
1772.581904  	0.014216 
1774.510720  	0.014788 
1776.439536  	0.015102 
1778.368352  	0.014855 
1780.297168  	0.014763 
1782.225984  	0.014601 
1784.154800  	0.014443 
1786.083616  	0.014382 
1788.012432  	0.014187 
1789.941248  	0.013007 
1791.870064  	0.012610 
1793.798880  	0.013162 
1795.727696  	0.013475 
1797.656512  	0.012925 
1799.585328  	0.012551 
1801.514144  	0.012524 
1803.442960  	0.012707 
1805.371776  	0.012431 
1807.300592  	0.012265 
1809.229408  	0.011678 
1811.158224  	0.011653 
1813.087040  	0.011814 
1815.015856  	0.011849 
1816.944672  	0.011636 
1818.873488  	0.011956 
1820.802304  	0.011928 
1822.731120  	0.011716 
1824.659936  	0.011323 
1826.588752  	0.011572 
1828.517568  	0.010939 
1830.446384  	0.011517 
1832.375200  	0.011994 
1834.304016  	0.011826 
1836.232832  	0.011523 
1838.161648  	0.012073 
1840.090464  	0.011974 
1842.019280  	0.011207 
1843.948096  	0.010560 
1845.876912  	0.011343 
1847.805728  	0.011611 
1849.734544  	0.011832 
1851.663360  	0.011520 
1853.592176  	0.011498 
1855.520992  	0.011441 
1857.449808  	0.011821 
1859.378624  	0.011607 
1861.307440  	0.011505 
1863.236256  	0.011078 
1865.165072  	0.011029 
1867.093888  	0.010754 
1869.022704  	0.011219 
1870.951520  	0.011394 
1872.880336  	0.011451 
1874.809152  	0.011217 
1876.737968  	0.011531 
1878.666784  	0.011354 
1880.595600  	0.011393 
1882.524416  	0.011300 
1884.453232  	0.011373 
1886.382048  	0.011068 
1888.310864  	0.010945 
1890.239680  	0.011170 
1892.168496  	0.011684 
1894.097312  	0.011405 
1896.026128  	0.011661 
1897.954944  	0.011397 
1899.883760  	0.011194 
1901.812576  	0.011168 
1903.741392  	0.011488 
1905.670208  	0.011159 
1907.599024  	0.011025 
1909.527840  	0.010969 
1911.456656  	0.011425 
1913.385472  	0.011588 
1915.314288  	0.011588 
1917.243104  	0.011228 
1919.171920  	0.011460 
1921.100736  	0.011340 
1923.029552  	0.011837 
1924.958368  	0.011669 
1926.887184  	0.011889 
1928.816000  	0.011294 
1930.744816  	0.010819 
1932.673632  	0.010799 
1934.602448  	0.011605 
1936.531264  	0.011914 
1938.460080  	0.011869 
1940.388896  	0.011693 
1942.317712  	0.011382 
1944.246528  	0.010852 
1946.175344  	0.011606 
1948.104160  	0.011137 
1950.032976  	0.011498 
1951.961792  	0.012250 
1953.890608  	0.012301 
1955.819424  	0.011144 
1957.748240  	0.011620 
1959.677056  	0.012180 
1961.605872  	0.011953 
1963.534688  	0.011062 
1965.463504  	0.011889 
1967.392320  	0.011649 
1969.321136  	0.010951 
1971.249952  	0.010882 
1973.178768  	0.012710 
1975.107584  	0.012049 
1977.036400  	0.011751 
1978.965216  	0.013804 
1980.894032  	0.013954 
1982.822848  	0.012278 
1984.751664  	0.012696 
1986.680480  	0.012302 
1988.609296  	0.012114 
1990.538112  	0.011906 
1992.466928  	0.012814 
1994.395744  	0.012664 
1996.324560  	0.012775 
1998.253376  	0.012642 
2000.182192  	0.012585 
2002.111008  	0.012031 
2004.039824  	0.012170 
2005.968640  	0.011379 
2007.897456  	0.012679 
2009.826272  	0.012714 
2011.755088  	0.012019 
2013.683904  	0.012819 
2015.612720  	0.013635 
2017.541536  	0.012614 
2019.470352  	0.012403 
2021.399168  	0.012368 
2023.327984  	0.013623 
2025.256800  	0.013180 
2027.185616  	0.012696 
2029.114432  	0.012094 
2031.043248  	0.013668 
2032.972064  	0.014039 
2034.900880  	0.013657 
2036.829696  	0.013232 
2038.758512  	0.012925 
2040.687328  	0.011888 
2042.616144  	0.011549 
2044.544960  	0.011419 
2046.473776  	0.012662 
2048.402592  	0.013115 
2050.331408  	0.013925 
2052.260224  	0.013165 
2054.189040  	0.012961 
2056.117856  	0.012261 
2058.046672  	0.012442 
2059.975488  	0.012356 
2061.904304  	0.012407 
2063.833120  	0.012848 
2065.761936  	0.013177 
2067.690752  	0.012288 
2069.619568  	0.011632 
2071.548384  	0.010851 
2073.477200  	0.011558 
2075.406016  	0.012622 
2077.334832  	0.012984 
2079.263648  	0.012479 
2081.192464  	0.012511 
2083.121280  	0.012660 
2085.050096  	0.012994 
2086.978912  	0.012458 
2088.907728  	0.011985 
2090.836544  	0.011400 
2092.765360  	0.011036 
2094.694176  	0.011291 
2096.622992  	0.011623 
2098.551808  	0.011586 
2100.480624  	0.012010 
2102.409440  	0.011818 
2104.338256  	0.012017 
2106.267072  	0.012006 
2108.195888  	0.012353 
2110.124704  	0.012929 
2112.053520  	0.012974 
2113.982336  	0.012666 
2115.911152  	0.012883 
2117.839968  	0.012329 
2119.768784  	0.011857 
2121.697600  	0.011601 
2123.626416  	0.011272 
2125.555232  	0.011160 
2127.484048  	0.011606 
2129.412864  	0.011346 
2131.341680  	0.010305 
2133.270496  	0.010482 
2135.199312  	0.011766 
2137.128128  	0.011770 
2139.056944  	0.011517 
2140.985760  	0.010868 
2142.914576  	0.011853 
2144.843392  	0.011642 
2146.772208  	0.012254 
2148.701024  	0.011980 
2150.629840  	0.011482 
2152.558656  	0.011534 
2154.487472  	0.011319 
2156.416288  	0.011254 
2158.345104  	0.013715 
2160.273920  	0.015476 
2162.202736  	0.015712 
2164.131552  	0.015262 
2166.060368  	0.015925 
2167.989184  	0.013787 
2169.918000  	0.012276 
2171.846816  	0.012143 
2173.775632  	0.012708 
2175.704448  	0.013592 
2177.633264  	0.014695 
2179.562080  	0.014056 
2181.490896  	0.013682 
2183.419712  	0.013366 
2185.348528  	0.012975 
2187.277344  	0.012655 
2189.206160  	0.013310 
2191.134976  	0.013981 
2193.063792  	0.015296 
2194.992608  	0.014977 
2196.921424  	0.013752 
2198.850240  	0.013900 
2200.779056  	0.014054 
2202.707872  	0.013325 
2204.636688  	0.012794 
2206.565504  	0.012739 
2208.494320  	0.013352 
2210.423136  	0.012443 
2212.351952  	0.012319 
2214.280768  	0.012641 
2216.209584  	0.012468 
2218.138400  	0.012718 
2220.067216  	0.013167 
2221.996032  	0.013190 
2223.924848  	0.013108 
2225.853664  	0.013028 
2227.782480  	0.013276 
2229.711296  	0.013471 
2231.640112  	0.013430 
2233.568928  	0.012981 
2235.497744  	0.012603 
2237.426560  	0.012547 
2239.355376  	0.013300 
2241.284192  	0.013244 
2243.213008  	0.013260 
2245.141824  	0.013097 
2247.070640  	0.012738 
2248.999456  	0.012416 
2250.928272  	0.012738 
2252.857088  	0.012775 
2254.785904  	0.012588 
2256.714720  	0.012783 
2258.643536  	0.013459 
2260.572352  	0.013449 
2262.501168  	0.013237 
2264.429984  	0.013020 
2266.358800  	0.013515 
2268.287616  	0.013743 
2270.216432  	0.013673 
2272.145248  	0.013453 
2274.074064  	0.013316 
2276.002880  	0.013340 
2277.931696  	0.013986 
2279.860512  	0.014351 
2281.789328  	0.014416 
2283.718144  	0.014086 
2285.646960  	0.014122 
2287.575776  	0.014295 
2289.504592  	0.014270 
2291.433408  	0.014044 
2293.362224  	0.013875 
2295.291040  	0.013715 
2297.219856  	0.013857 
2299.148672  	0.013824 
2301.077488  	0.014085 
2303.006304  	0.014151 
2304.935120  	0.014128 
2306.863936  	0.013893 
2308.792752  	0.013590 
2310.721568  	0.013907 
2312.650384  	0.014135 
2314.579200  	0.013990 
2316.508016  	0.014232 
2318.436832  	0.014312 
2320.365648  	0.014368 
2322.294464  	0.014339 
2324.223280  	0.013976 
2326.152096  	0.012600 
2328.080912  	0.011728 
2330.009728  	0.011530 
2331.938544  	0.011510 
2333.867360  	0.010941 
2335.796176  	0.010588 
2337.724992  	0.010566 
2339.653808  	0.010663 
2341.582624  	0.010780 
2343.511440  	0.011712 
2345.440256  	0.012322 
2347.369072  	0.012815 
2349.297888  	0.012281 
2351.226704  	0.011277 
2353.155520  	0.010921 
2355.084336  	0.010379 
2357.013152  	0.009815 
2358.941968  	0.009688 
2360.870784  	0.009505 
2362.799600  	0.009788 
2364.728416  	0.009908 
2366.657232  	0.010463 
2368.586048  	0.010924 
2370.514864  	0.011778 
2372.443680  	0.012461 
2374.372496  	0.013073 
2376.301312  	0.013502 
2378.230128  	0.013846 
2380.158944  	0.013943 
2382.087760  	0.013887 
2384.016576  	0.013777 
2385.945392  	0.013886 
2387.874208  	0.013747 
2389.803024  	0.013581 
2391.731840  	0.013450 
2393.660656  	0.013575 
2395.589472  	0.013826 
2397.518288  	0.013992 
2399.447104  	0.013795 
2401.375920  	0.013569 
2403.304736  	0.013668 
2405.233552  	0.013784 
2407.162368  	0.013854 
2409.091184  	0.013823 
2411.020000  	0.013864 
2412.948816  	0.014178 
2414.877632  	0.014287 
2416.806448  	0.014473 
2418.735264  	0.014530 
2420.664080  	0.014416 
2422.592896  	0.014234 
2424.521712  	0.014247 
2426.450528  	0.014297 
2428.379344  	0.014366 
2430.308160  	0.014519 
2432.236976  	0.014644 
2434.165792  	0.014675 
2436.094608  	0.015117 
2438.023424  	0.015330 
2439.952240  	0.015375 
2441.881056  	0.015519 
2443.809872  	0.015617 
2445.738688  	0.015601 
2447.667504  	0.015605 
2449.596320  	0.015536 
2451.525136  	0.015538 
2453.453952  	0.015579 
2455.382768  	0.015799 
2457.311584  	0.015840 
2459.240400  	0.015925 
2461.169216  	0.015862 
2463.098032  	0.015926 
2465.026848  	0.016096 
2466.955664  	0.015994 
2468.884480  	0.015827 
2470.813296  	0.015918 
2472.742112  	0.015893 
2474.670928  	0.015974 
2476.599744  	0.016058 
2478.528560  	0.016149 
2480.457376  	0.016464 
2482.386192  	0.016497 
2484.315008  	0.016412 
2486.243824  	0.016479 
2488.172640  	0.016290 
2490.101456  	0.016345 
2492.030272  	0.016736 
2493.959088  	0.016927 
2495.887904  	0.016737 
2497.816720  	0.016849 
2499.745536  	0.016835 
2501.674352  	0.016977 
2503.603168  	0.017183 
2505.531984  	0.017287 
2507.460800  	0.017238 
2509.389616  	0.017186 
2511.318432  	0.016894 
2513.247248  	0.016847 
2515.176064  	0.017044 
2517.104880  	0.017530 
2519.033696  	0.017718 
2520.962512  	0.017741 
2522.891328  	0.017991 
2524.820144  	0.018034 
2526.748960  	0.017914 
2528.677776  	0.018128 
2530.606592  	0.018228 
2532.535408  	0.018281 
2534.464224  	0.018350 
2536.393040  	0.018296 
2538.321856  	0.018074 
2540.250672  	0.018161 
2542.179488  	0.018217 
2544.108304  	0.018262 
2546.037120  	0.018201 
2547.965936  	0.018578 
2549.894752  	0.018847 
2551.823568  	0.019001 
2553.752384  	0.019116 
2555.681200  	0.019078 
2557.610016  	0.019088 
2559.538832  	0.019229 
2561.467648  	0.019288 
2563.396464  	0.019604 
2565.325280  	0.019814 
2567.254096  	0.019746 
2569.182912  	0.019762 
2571.111728  	0.019741 
2573.040544  	0.019518 
2574.969360  	0.019475 
2576.898176  	0.019789 
2578.826992  	0.020182 
2580.755808  	0.020092 
2582.684624  	0.019967 
2584.613440  	0.020002 
2586.542256  	0.020210 
2588.471072  	0.020489 
2590.399888  	0.020493 
2592.328704  	0.020539 
2594.257520  	0.020745 
2596.186336  	0.021105 
2598.115152  	0.021287 
2600.043968  	0.021134 
2601.972784  	0.021025 
2603.901600  	0.021206 
2605.830416  	0.021589 
2607.759232  	0.021503 
2609.688048  	0.021608 
2611.616864  	0.021833 
2613.545680  	0.021917 
2615.474496  	0.021956 
2617.403312  	0.021910 
2619.332128  	0.021951 
2621.260944  	0.022247 
2623.189760  	0.022298 
2625.118576  	0.022345 
2627.047392  	0.022586 
2628.976208  	0.022967 
2630.905024  	0.023134 
2632.833840  	0.023252 
2634.762656  	0.023366 
2636.691472  	0.023362 
2638.620288  	0.023426 
2640.549104  	0.023549 
2642.477920  	0.023655 
2644.406736  	0.023800 
2646.335552  	0.024135 
2648.264368  	0.024334 
2650.193184  	0.024385 
2652.122000  	0.024506 
2654.050816  	0.024625 
2655.979632  	0.024551 
2657.908448  	0.024602 
2659.837264  	0.024801 
2661.766080  	0.024809 
2663.694896  	0.024861 
2665.623712  	0.024814 
2667.552528  	0.024800 
2669.481344  	0.025008 
2671.410160  	0.025255 
2673.338976  	0.025295 
2675.267792  	0.025416 
2677.196608  	0.025670 
2679.125424  	0.025861 
2681.054240  	0.025888 
2682.983056  	0.025992 
2684.911872  	0.026117 
2686.840688  	0.026242 
2688.769504  	0.026434 
2690.698320  	0.026586 
2692.627136  	0.026732 
2694.555952  	0.026866 
2696.484768  	0.026849 
2698.413584  	0.026962 
2700.342400  	0.027063 
2702.271216  	0.027176 
2704.200032  	0.027438 
2706.128848  	0.027573 
2708.057664  	0.027613 
2709.986480  	0.027683 
2711.915296  	0.027826 
2713.844112  	0.027999 
2715.772928  	0.028273 
2717.701744  	0.028524 
2719.630560  	0.028570 
2721.559376  	0.028652 
2723.488192  	0.028791 
2725.417008  	0.029044 
2727.345824  	0.029216 
2729.274640  	0.029274 
2731.203456  	0.029373 
2733.132272  	0.029526 
2735.061088  	0.029731 
2736.989904  	0.029877 
2738.918720  	0.029901 
2740.847536  	0.029911 
2742.776352  	0.030101 
2744.705168  	0.030354 
2746.633984  	0.030418 
2748.562800  	0.030574 
2750.491616  	0.030669 
2752.420432  	0.030708 
2754.349248  	0.030903 
2756.278064  	0.031029 
2758.206880  	0.031077 
2760.135696  	0.031232 
2762.064512  	0.031206 
2763.993328  	0.031153 
2765.922144  	0.031146 
2767.850960  	0.031243 
2769.779776  	0.031404 
2771.708592  	0.031556 
2773.637408  	0.031566 
2775.566224  	0.031727 
2777.495040  	0.031824 
2779.423856  	0.031913 
2781.352672  	0.032023 
2783.281488  	0.032081 
2785.210304  	0.032083 
2787.139120  	0.032219 
2789.067936  	0.032456 
2790.996752  	0.032668 
2792.925568  	0.032834 
2794.854384  	0.033066 
2796.783200  	0.033177 
2798.712016  	0.033111 
2800.640832  	0.033092 
2802.569648  	0.033267 
2804.498464  	0.033505 
2806.427280  	0.033590 
2808.356096  	0.033662 
2810.284912  	0.033865 
2812.213728  	0.033928 
2814.142544  	0.034028 
2816.071360  	0.034217 
2818.000176  	0.034284 
2819.928992  	0.034340 
2821.857808  	0.034496 
2823.786624  	0.034612 
2825.715440  	0.034720 
2827.644256  	0.034674 
2829.573072  	0.034732 
2831.501888  	0.034788 
2833.430704  	0.034850 
2835.359520  	0.034937 
2837.288336  	0.035072 
2839.217152  	0.035245 
2841.145968  	0.035362 
2843.074784  	0.035476 
2845.003600  	0.035794 
2846.932416  	0.036196 
2848.861232  	0.036570 
2850.790048  	0.036909 
2852.718864  	0.037222 
2854.647680  	0.037506 
2856.576496  	0.037887 
2858.505312  	0.038188 
2860.434128  	0.038583 
2862.362944  	0.039065 
2864.291760  	0.039513 
2866.220576  	0.039986 
2868.149392  	0.040726 
2870.078208  	0.041461 
2872.007024  	0.042042 
2873.935840  	0.042566 
2875.864656  	0.043335 
2877.793472  	0.044321 
2879.722288  	0.045161 
2881.651104  	0.045991 
2883.579920  	0.046722 
2885.508736  	0.047181 
2887.437552  	0.047514 
2889.366368  	0.047797 
2891.295184  	0.048102 
2893.224000  	0.048318 
2895.152816  	0.048577 
2897.081632  	0.048759 
2899.010448  	0.049438 
2900.939264  	0.050303 
2902.868080  	0.049970 
2904.796896  	0.049648 
2906.725712  	0.049572 
2908.654528  	0.049485 
2910.583344  	0.049884 
2912.512160  	0.050462 
2914.440976  	0.050876 
2916.369792  	0.051177 
2918.298608  	0.051515 
2920.227424  	0.051977 
2922.156240  	0.052516 
2924.085056  	0.052902 
2926.013872  	0.053406 
2927.942688  	0.053964 
2929.871504  	0.054378 
2931.800320  	0.054717 
2933.729136  	0.055081 
2935.657952  	0.055469 
2937.586768  	0.055979 
2939.515584  	0.056309 
2941.444400  	0.056629 
2943.373216  	0.057098 
2945.302032  	0.057296 
2947.230848  	0.057235 
2949.159664  	0.057409 
2951.088480  	0.057847 
2953.017296  	0.058310 
2954.946112  	0.058328 
2956.874928  	0.058375 
2958.803744  	0.058396 
2960.732560  	0.058400 
2962.661376  	0.058637 
2964.590192  	0.058899 
2966.519008  	0.059233 
2968.447824  	0.059558 
2970.376640  	0.059643 
2972.305456  	0.059390 
2974.234272  	0.058882 
2976.163088  	0.058590 
2978.091904  	0.058374 
2980.020720  	0.058171 
2981.949536  	0.057908 
2983.878352  	0.057796 
2985.807168  	0.058174 
2987.735984  	0.058801 
2989.664800  	0.058592 
2991.593616  	0.057012 
2993.522432  	0.055983 
2995.451248  	0.055824 
2997.380064  	0.055774 
2999.308880  	0.055540 
3001.237696  	0.055146 
3003.166512  	0.054729 
3005.095328  	0.054277 
3007.024144  	0.054001 
3008.952960  	0.053573 
3010.881776  	0.053066 
3012.810592  	0.052639 
3014.739408  	0.052256 
3016.668224  	0.052094 
3018.597040  	0.051893 
3020.525856  	0.051495 
3022.454672  	0.051236 
3024.383488  	0.051187 
3026.312304  	0.051105 
3028.241120  	0.050863 
3030.169936  	0.050658 
3032.098752  	0.050840 
3034.027568  	0.050854 
3035.956384  	0.050665 
3037.885200  	0.050660 
3039.814016  	0.050823 
3041.742832  	0.051122 
3043.671648  	0.051203 
3045.600464  	0.051293 
3047.529280  	0.051548 
3049.458096  	0.051754 
3051.386912  	0.051812 
3053.315728  	0.052062 
3055.244544  	0.052503 
3057.173360  	0.053061 
3059.102176  	0.053388 
3061.030992  	0.053659 
3062.959808  	0.054041 
3064.888624  	0.054553 
3066.817440  	0.055133 
3068.746256  	0.055477 
3070.675072  	0.055680 
3072.603888  	0.056134 
3074.532704  	0.056825 
3076.461520  	0.057289 
3078.390336  	0.057583 
3080.319152  	0.057960 
3082.247968  	0.058468 
3084.176784  	0.058965 
3086.105600  	0.059110 
3088.034416  	0.059542 
3089.963232  	0.060181 
3091.892048  	0.060518 
3093.820864  	0.060714 
3095.749680  	0.061150 
3097.678496  	0.061530 
3099.607312  	0.062012 
3101.536128  	0.062382 
3103.464944  	0.062701 
3105.393760  	0.063041 
3107.322576  	0.063443 
3109.251392  	0.063922 
3111.180208  	0.064371 
3113.109024  	0.064740 
3115.037840  	0.064870 
3116.966656  	0.065105 
3118.895472  	0.065360 
3120.824288  	0.065728 
3122.753104  	0.066156 
3124.681920  	0.066371 
3126.610736  	0.066654 
3128.539552  	0.066899 
3130.468368  	0.067035 
3132.397184  	0.067279 
3134.326000  	0.067764 
3136.254816  	0.067953 
3138.183632  	0.068126 
3140.112448  	0.068292 
3142.041264  	0.068577 
3143.970080  	0.068933 
3145.898896  	0.069160 
3147.827712  	0.069453 
3149.756528  	0.069984 
3151.685344  	0.070458 
3153.614160  	0.070778 
3155.542976  	0.071010 
3157.471792  	0.071296 
3159.400608  	0.071808 
3161.329424  	0.072144 
3163.258240  	0.072333 
3165.187056  	0.072718 
3167.115872  	0.073048 
3169.044688  	0.073138 
3170.973504  	0.073219 
3172.902320  	0.073523 
3174.831136  	0.073836 
3176.759952  	0.074161 
3178.688768  	0.074462 
3180.617584  	0.074543 
3182.546400  	0.074291 
3184.475216  	0.074461 
3186.404032  	0.074827 
3188.332848  	0.074922 
3190.261664  	0.074927 
3192.190480  	0.074851 
3194.119296  	0.074727 
3196.048112  	0.074755 
3197.976928  	0.075045 
3199.905744  	0.075140 
3201.834560  	0.075047 
3203.763376  	0.074997 
3205.692192  	0.075018 
3207.621008  	0.074875 
3209.549824  	0.074557 
3211.478640  	0.074398 
3213.407456  	0.074328 
3215.336272  	0.074316 
3217.265088  	0.074112 
3219.193904  	0.073721 
3221.122720  	0.073411 
3223.051536  	0.073397 
3224.980352  	0.073245 
3226.909168  	0.072873 
3228.837984  	0.072536 
3230.766800  	0.072523 
3232.695616  	0.072579 
3234.624432  	0.072433 
3236.553248  	0.072282 
3238.482064  	0.072185 
3240.410880  	0.072097 
3242.339696  	0.071962 
3244.268512  	0.071846 
3246.197328  	0.071843 
3248.126144  	0.071899 
3250.054960  	0.071949 
3251.983776  	0.071847 
3253.912592  	0.071873 
3255.841408  	0.072096 
3257.770224  	0.072161 
3259.699040  	0.072267 
3261.627856  	0.072571 
3263.556672  	0.072725 
3265.485488  	0.072638 
3267.414304  	0.072659 
3269.343120  	0.072851 
3271.271936  	0.073152 
3273.200752  	0.073244 
3275.129568  	0.073341 
3277.058384  	0.073376 
3278.987200  	0.073468 
3280.916016  	0.073588 
3282.844832  	0.073559 
3284.773648  	0.073717 
3286.702464  	0.073929 
3288.631280  	0.074013 
3290.560096  	0.074162 
3292.488912  	0.074404 
3294.417728  	0.074392 
3296.346544  	0.074456 
3298.275360  	0.074719 
3300.204176  	0.075134 
3302.132992  	0.075491 
3304.061808  	0.075751 
3305.990624  	0.075938 
3307.919440  	0.075980 
3309.848256  	0.075958 
3311.777072  	0.076121 
3313.705888  	0.076635 
3315.634704  	0.077088 
3317.563520  	0.077325 
3319.492336  	0.077438 
3321.421152  	0.077471 
3323.349968  	0.077515 
3325.278784  	0.077747 
3327.207600  	0.077939 
3329.136416  	0.077968 
3331.065232  	0.077857 
3332.994048  	0.077947 
3334.922864  	0.077828 
3336.851680  	0.077601 
3338.780496  	0.077650 
3340.709312  	0.077717 
3342.638128  	0.077582 
3344.566944  	0.077346 
3346.495760  	0.077099 
3348.424576  	0.076877 
3350.353392  	0.076689 
3352.282208  	0.076315 
3354.211024  	0.076072 
3356.139840  	0.076013 
3358.068656  	0.075920 
3359.997472  	0.075611 
3361.926288  	0.075003 
3363.855104  	0.074460 
3365.783920  	0.074257 
3367.712736  	0.074235 
3369.641552  	0.073961 
3371.570368  	0.073563 
3373.499184  	0.073235 
3375.428000  	0.072769 
3377.356816  	0.072487 
3379.285632  	0.072214 
3381.214448  	0.071920 
3383.143264  	0.071685 
3385.072080  	0.071571 
3387.000896  	0.071168 
3388.929712  	0.070696 
3390.858528  	0.070389 
3392.787344  	0.069924 
3394.716160  	0.069477 
3396.644976  	0.069289 
3398.573792  	0.069009 
3400.502608  	0.068438 
3402.431424  	0.068013 
3404.360240  	0.067520 
3406.289056  	0.067129 
3408.217872  	0.066951 
3410.146688  	0.066685 
3412.075504  	0.066565 
3414.004320  	0.066378 
3415.933136  	0.065862 
3417.861952  	0.065281 
3419.790768  	0.064930 
3421.719584  	0.064583 
3423.648400  	0.064164 
3425.577216  	0.063881 
3427.506032  	0.063491 
3429.434848  	0.062977 
3431.363664  	0.062604 
3433.292480  	0.062448 
3435.221296  	0.062253 
3437.150112  	0.061795 
3439.078928  	0.061346 
3441.007744  	0.060889 
3442.936560  	0.060634 
3444.865376  	0.060027 
3446.794192  	0.059202 
3448.723008  	0.059210 
3450.651824  	0.058878 
3452.580640  	0.058162 
3454.509456  	0.057676 
3456.438272  	0.057295 
3458.367088  	0.056940 
3460.295904  	0.056646 
3462.224720  	0.056051 
3464.153536  	0.055210 
3466.082352  	0.054790 
3468.011168  	0.054446 
3469.939984  	0.053909 
3471.868800  	0.053367 
3473.797616  	0.053015 
3475.726432  	0.052566 
3477.655248  	0.051792 
3479.584064  	0.051198 
3481.512880  	0.050674 
3483.441696  	0.050011 
3485.370512  	0.049316 
3487.299328  	0.048866 
3489.228144  	0.048454 
3491.156960  	0.047796 
3493.085776  	0.047438 
3495.014592  	0.047002 
3496.943408  	0.046391 
3498.872224  	0.045812 
3500.801040  	0.045169 
3502.729856  	0.044684 
3504.658672  	0.044370 
3506.587488  	0.043608 
3508.516304  	0.043070 
3510.445120  	0.043067 
3512.373936  	0.042930 
3514.302752  	0.042448 
3516.231568  	0.041855 
3518.160384  	0.041323 
3520.089200  	0.040831 
3522.018016  	0.040252 
3523.946832  	0.039845 
3525.875648  	0.039596 
3527.804464  	0.039253 
3529.733280  	0.039010 
3531.662096  	0.038735 
3533.590912  	0.038276 
3535.519728  	0.037768 
3537.448544  	0.037483 
3539.377360  	0.037069 
3541.306176  	0.036367 
3543.234992  	0.035518 
3545.163808  	0.035263 
3547.092624  	0.035250 
3549.021440  	0.034728 
3550.950256  	0.034188 
3552.879072  	0.034179 
3554.807888  	0.034020 
3556.736704  	0.033566 
3558.665520  	0.033183 
3560.594336  	0.032890 
3562.523152  	0.032210 
3564.451968  	0.031073 
3566.380784  	0.030193 
3568.309600  	0.030707 
3570.238416  	0.030866 
3572.167232  	0.030306 
3574.096048  	0.029823 
3576.024864  	0.029348 
3577.953680  	0.028878 
3579.882496  	0.028589 
3581.811312  	0.028260 
3583.740128  	0.027248 
3585.668944  	0.025859 
3587.597760  	0.025871 
3589.526576  	0.026311 
3591.455392  	0.025169 
3593.384208  	0.024442 
3595.313024  	0.024304 
3597.241840  	0.024177 
3599.170656  	0.023575 
3601.099472  	0.023039 
3603.028288  	0.022724 
3604.957104  	0.021752 
3606.885920  	0.020637 
3608.814736  	0.020717 
3610.743552  	0.020165 
3612.672368  	0.019074 
3614.601184  	0.018917 
3616.530000  	0.018024 
3618.458816  	0.017506 
3620.387632  	0.018207 
3622.316448  	0.018136 
3624.245264  	0.017163 
3626.174080  	0.015475 
3628.102896  	0.014275 
3630.031712  	0.015801 
3631.960528  	0.015582 
3633.889344  	0.015033 
3635.818160  	0.014830 
3637.746976  	0.014609 
3639.675792  	0.014739 
3641.604608  	0.014358 
3643.533424  	0.013382 
3645.462240  	0.011721 
3647.391056  	0.010356 
3649.319872  	0.010387 
3651.248688  	0.012252 
3653.177504  	0.012522 
3655.106320  	0.011620 
3657.035136  	0.012397 
3658.963952  	0.012568 
3660.892768  	0.011969 
3662.821584  	0.011683 
3664.750400  	0.011278 
3666.679216  	0.010033 
3668.608032  	0.008270 
3670.536848  	0.008909 
3672.465664  	0.008997 
3674.394480  	0.007038 
3676.323296  	0.009007 
3678.252112  	0.009433 
3680.180928  	0.009179 
3682.109744  	0.009322 
3684.038560  	0.009028 
3685.967376  	0.007668 
3687.896192  	0.006366 
3689.825008  	0.006938 
3691.753824  	0.007901 
3693.682640  	0.008106 
3695.611456  	0.007615 
3697.540272  	0.007216 
3699.469088  	0.006354 
3701.397904  	0.006460 
3703.326720  	0.007014 
3705.255536  	0.006479 
3707.184352  	0.005397 
3709.113168  	0.004252 
3711.041984  	0.004159 
3712.970800  	0.005682 
3714.899616  	0.006006 
3716.828432  	0.005507 
3718.757248  	0.004914 
3720.686064  	0.004450 
3722.614880  	0.004731 
3724.543696  	0.004971 
3726.472512  	0.005197 
3728.401328  	0.005000 
3730.330144  	0.003485 
3732.258960  	0.002642 
3734.187776  	0.002790 
3736.116592  	0.004572 
3738.045408  	0.005396 
3739.974224  	0.004578 
3741.903040  	0.003148 
3743.831856  	0.003030 
3745.760672  	0.005107 
3747.689488  	0.003277 
3749.618304  	0.002162 
3751.547120  	0.003475 
3753.475936  	0.005553 
3755.404752  	0.005200 
3757.333568  	0.004430 
3759.262384  	0.004595 
3761.191200  	0.005555 
3763.120016  	0.005306 
3765.048832  	0.005006 
3766.977648  	0.005039 
3768.906464  	0.004604 
3770.835280  	0.005502 
3772.764096  	0.005865 
3774.692912  	0.005566 
3776.621728  	0.005043 
3778.550544  	0.004874 
3780.479360  	0.005700 
3782.408176  	0.005624 
3784.336992  	0.005283 
3786.265808  	0.005475 
3788.194624  	0.005664 
3790.123440  	0.005672 
3792.052256  	0.005575 
3793.981072  	0.004886 
3795.909888  	0.004382 
3797.838704  	0.004573 
3799.767520  	0.003357 
3801.696336  	0.004262 
3803.625152  	0.005427 
3805.553968  	0.004234 
3807.482784  	0.005134 
3809.411600  	0.005944 
3811.340416  	0.005709 
3813.269232  	0.004843 
3815.198048  	0.003872 
3817.126864  	0.004727 
3819.055680  	0.003527 
3820.984496  	0.003552 
3822.913312  	0.005435 
3824.842128  	0.004864 
3826.770944  	0.004762 
3828.699760  	0.004963 
3830.628576  	0.004562 
3832.557392  	0.004679 
3834.486208  	0.004055 
3836.415024  	0.003272 
3838.343840  	0.003875 
3840.272656  	0.004575 
3842.201472  	0.004609 
3844.130288  	0.005027 
3846.059104  	0.005460 
3847.987920  	0.004951 
3849.916736  	0.003832 
3851.845552  	0.002089 
3853.774368  	0.004149 
3855.703184  	0.006125 
3857.632000  	0.005525 
3859.560816  	0.004827 
3861.489632  	0.004132 
3863.418448  	0.003997 
3865.347264  	0.004958 
3867.276080  	0.004681 
3869.204896  	0.003973 
3871.133712  	0.005373 
3873.062528  	0.004787 
3874.991344  	0.005208 
3876.920160  	0.005186 
3878.848976  	0.004277 
3880.777792  	0.004882 
3882.706608  	0.005184 
3884.635424  	0.004473 
3886.564240  	0.005655 
3888.493056  	0.005406 
3890.421872  	0.004770 
3892.350688  	0.005410 
3894.279504  	0.005539 
3896.208320  	0.005072 
3898.137136  	0.004399 
3900.065952  	0.004193 
3901.994768  	0.004302 
3903.923584  	0.005164 
3905.852400  	0.006009 
3907.781216  	0.006002 
3909.710032  	0.005803 
3911.638848  	0.005736 
3913.567664  	0.005610 
3915.496480  	0.005316 
3917.425296  	0.005759 
3919.354112  	0.006031 
3921.282928  	0.005859 
3923.211744  	0.005383 
3925.140560  	0.005601 
3927.069376  	0.005757 
3928.998192  	0.005500 
3930.927008  	0.005645 
3932.855824  	0.006057 
3934.784640  	0.006141 
3936.713456  	0.006027 
3938.642272  	0.005745 
3940.571088  	0.005234 
3942.499904  	0.005452 
3944.428720  	0.005996 
3946.357536  	0.005715 
3948.286352  	0.005649 
3950.215168  	0.005783 
3952.143984  	0.005912 
3954.072800  	0.005919 
3956.001616  	0.005784 
3957.930432  	0.005924 
3959.859248  	0.006064 
3961.788064  	0.006006 
3963.716880  	0.006144 
3965.645696  	0.006144 
3967.574512  	0.006199 
3969.503328  	0.006245 
3971.432144  	0.006010 
3973.360960  	0.005918 
3975.289776  	0.006124 
3977.218592  	0.006282 
3979.147408  	0.006343 
3981.076224  	0.006281 
3983.005040  	0.006150 
3984.933856  	0.006126 
3986.862672  	0.006235 
3988.791488  	0.006190 
3990.720304  	0.006105 
3992.649120  	0.006075 
3994.577936  	0.006096 
3996.506752  	0.006290 
3998.435568  	0.006374 
4000.364384  	0.006269 