##TITLE=No Description
##DATA TYPE=INFRARED SPECTRUM
##XUNITS=1/CM
##YUNITS=Abs
399.264912  	0.598362 
401.193728  	0.593214 
403.122544  	0.600384 
405.051360  	0.594983 
406.980176  	0.590996 
408.908992  	0.584913 
410.837808  	0.576906 
412.766624  	0.557302 
414.695440  	0.549510 
416.624256  	0.557503 
418.553072  	0.568679 
420.481888  	0.563969 
422.410704  	0.564195 
424.339520  	0.552097 
426.268336  	0.548552 
428.197152  	0.544831 
430.125968  	0.543872 
432.054784  	0.540038 
433.983600  	0.540858 
435.912416  	0.528564 
437.841232  	0.523956 
439.770048  	0.527338 
441.698864  	0.528521 
443.627680  	0.522979 
445.556496  	0.521218 
447.485312  	0.523793 
449.414128  	0.521553 
451.342944  	0.514280 
453.271760  	0.515746 
455.200576  	0.510844 
457.129392  	0.504313 
459.058208  	0.505770 
460.987024  	0.514828 
462.915840  	0.515431 
464.844656  	0.517173 
466.773472  	0.515159 
468.702288  	0.518897 
470.631104  	0.517821 
472.559920  	0.517912 
474.488736  	0.512745 
476.417552  	0.510446 
478.346368  	0.510801 
480.275184  	0.512308 
482.204000  	0.510694 
484.132816  	0.512538 
486.061632  	0.505444 
487.990448  	0.503874 
489.919264  	0.503852 
491.848080  	0.503583 
493.776896  	0.501579 
495.705712  	0.503983 
497.634528  	0.502315 
499.563344  	0.500848 
501.492160  	0.497429 
503.420976  	0.496825 
505.349792  	0.497671 
507.278608  	0.499433 
509.207424  	0.496275 
511.136240  	0.497532 
513.065056  	0.500382 
514.993872  	0.502638 
516.922688  	0.501411 
518.851504  	0.503190 
520.780320  	0.502860 
522.709136  	0.502656 
524.637952  	0.499306 
526.566768  	0.497457 
528.495584  	0.495569 
530.424400  	0.493492 
532.353216  	0.490164 
534.282032  	0.485859 
536.210848  	0.479424 
538.139664  	0.476557 
540.068480  	0.472666 
541.997296  	0.469165 
543.926112  	0.464862 
545.854928  	0.462466 
547.783744  	0.459012 
549.712560  	0.454665 
551.641376  	0.450514 
553.570192  	0.448410 
555.499008  	0.445672 
557.427824  	0.441548 
559.356640  	0.436351 
561.285456  	0.434755 
563.214272  	0.431595 
565.143088  	0.427344 
567.071904  	0.422552 
569.000720  	0.420425 
570.929536  	0.416957 
572.858352  	0.412875 
574.787168  	0.409504 
576.715984  	0.406564 
578.644800  	0.402805 
580.573616  	0.399315 
582.502432  	0.395065 
584.431248  	0.392073 
586.360064  	0.389463 
588.288880  	0.387352 
590.217696  	0.385058 
592.146512  	0.383683 
594.075328  	0.381263 
596.004144  	0.378570 
597.932960  	0.376756 
599.861776  	0.376102 
601.790592  	0.374666 
603.719408  	0.373209 
605.648224  	0.371420 
607.577040  	0.371577 
609.505856  	0.371190 
611.434672  	0.369551 
613.363488  	0.366819 
615.292304  	0.364915 
617.221120  	0.363068 
619.149936  	0.361843 
621.078752  	0.359286 
623.007568  	0.357630 
624.936384  	0.355301 
626.865200  	0.353816 
628.794016  	0.352358 
630.722832  	0.351323 
632.651648  	0.350661 
634.580464  	0.350045 
636.509280  	0.350004 
638.438096  	0.350093 
640.366912  	0.349778 
642.295728  	0.348001 
644.224544  	0.344819 
646.153360  	0.342082 
648.082176  	0.339206 
650.010992  	0.336624 
651.939808  	0.333133 
653.868624  	0.329500 
655.797440  	0.325334 
657.726256  	0.321954 
659.655072  	0.318215 
661.583888  	0.315026 
663.512704  	0.311500 
665.441520  	0.308260 
667.370336  	0.302785 
669.299152  	0.297181 
671.227968  	0.296585 
673.156784  	0.294947 
675.085600  	0.292490 
677.014416  	0.289645 
678.943232  	0.287687 
680.872048  	0.286469 
682.800864  	0.285075 
684.729680  	0.283966 
686.658496  	0.282025 
688.587312  	0.280359 
690.516128  	0.278138 
692.444944  	0.276672 
694.373760  	0.275408 
696.302576  	0.274245 
698.231392  	0.271864 
700.160208  	0.268648 
702.089024  	0.265847 
704.017840  	0.264631 
705.946656  	0.262470 
707.875472  	0.259897 
709.804288  	0.257709 
711.733104  	0.256287 
713.661920  	0.254868 
715.590736  	0.253503 
717.519552  	0.252646 
719.448368  	0.253294 
721.377184  	0.254288 
723.306000  	0.254995 
725.234816  	0.255062 
727.163632  	0.253807 
729.092448  	0.251234 
731.021264  	0.248809 
732.950080  	0.245993 
734.878896  	0.243008 
736.807712  	0.240585 
738.736528  	0.238606 
740.665344  	0.237034 
742.594160  	0.236045 
744.522976  	0.234728 
746.451792  	0.233664 
748.380608  	0.232532 
750.309424  	0.231447 
752.238240  	0.230531 
754.167056  	0.230235 
756.095872  	0.229583 
758.024688  	0.228454 
759.953504  	0.228001 
761.882320  	0.228256 
763.811136  	0.228376 
765.739952  	0.227954 
767.668768  	0.226566 
769.597584  	0.225179 
771.526400  	0.225167 
773.455216  	0.226924 
775.384032  	0.229720 
777.312848  	0.233464 
779.241664  	0.237132 
781.170480  	0.237878 
783.099296  	0.234690 
785.028112  	0.229822 
786.956928  	0.224158 
788.885744  	0.218997 
790.814560  	0.215226 
792.743376  	0.212953 
794.672192  	0.211499 
796.601008  	0.210626 
798.529824  	0.208689 
800.458640  	0.205296 
802.387456  	0.202018 
804.316272  	0.200352 
806.245088  	0.199469 
808.173904  	0.199141 
810.102720  	0.199077 
812.031536  	0.199214 
813.960352  	0.199065 
815.889168  	0.199074 
817.817984  	0.199245 
819.746800  	0.198768 
821.675616  	0.198046 
823.604432  	0.197597 
825.533248  	0.196722 
827.462064  	0.195781 
829.390880  	0.194659 
831.319696  	0.193218 
833.248512  	0.191659 
835.177328  	0.189807 
837.106144  	0.187299 
839.034960  	0.184288 
840.963776  	0.181287 
842.892592  	0.178572 
844.821408  	0.175661 
846.750224  	0.172995 
848.679040  	0.170966 
850.607856  	0.169142 
852.536672  	0.167538 
854.465488  	0.165914 
856.394304  	0.164653 
858.323120  	0.163624 
860.251936  	0.162094 
862.180752  	0.160310 
864.109568  	0.158726 
866.038384  	0.157286 
867.967200  	0.155815 
869.896016  	0.154298 
871.824832  	0.152946 
873.753648  	0.152233 
875.682464  	0.152249 
877.611280  	0.152435 
879.540096  	0.152675 
881.468912  	0.153506 
883.397728  	0.154268 
885.326544  	0.154406 
887.255360  	0.154150 
889.184176  	0.153470 
891.112992  	0.152258 
893.041808  	0.150488 
894.970624  	0.148416 
896.899440  	0.145883 
898.828256  	0.142561 
900.757072  	0.139225 
902.685888  	0.136310 
904.614704  	0.134434 
906.543520  	0.134124 
908.472336  	0.135245 
910.401152  	0.137135 
912.329968  	0.139709 
914.258784  	0.142656 
916.187600  	0.145302 
918.116416  	0.147124 
920.045232  	0.147830 
921.974048  	0.147548 
923.902864  	0.146719 
925.831680  	0.145543 
927.760496  	0.144319 
929.689312  	0.143382 
931.618128  	0.143242 
933.546944  	0.143364 
935.475760  	0.143461 
937.404576  	0.143580 
939.333392  	0.144131 
941.262208  	0.145464 
943.191024  	0.147915 
945.119840  	0.151679 
947.048656  	0.156468 
948.977472  	0.162360 
950.906288  	0.169213 
952.835104  	0.176435 
954.763920  	0.183701 
956.692736  	0.190320 
958.621552  	0.195626 
960.550368  	0.199142 
962.479184  	0.200525 
964.408000  	0.199081 
966.336816  	0.195165 
968.265632  	0.188667 
970.194448  	0.180437 
972.123264  	0.171089 
974.052080  	0.161117 
975.980896  	0.151207 
977.909712  	0.142153 
979.838528  	0.134789 
981.767344  	0.128799 
983.696160  	0.124627 
985.624976  	0.122541 
987.553792  	0.122834 
989.482608  	0.125193 
991.411424  	0.129318 
993.340240  	0.134972 
995.269056  	0.141726 
997.197872  	0.149136 
999.126688  	0.156349 
1001.055504  	0.163539 
1002.984320  	0.170574 
1004.913136  	0.177389 
1006.841952  	0.183356 
1008.770768  	0.188598 
1010.699584  	0.192654 
1012.628400  	0.195389 
1014.557216  	0.197212 
1016.486032  	0.198694 
1018.414848  	0.199486 
1020.343664  	0.200365 
1022.272480  	0.201014 
1024.201296  	0.201479 
1026.130112  	0.201772 
1028.058928  	0.202517 
1029.987744  	0.203757 
1031.916560  	0.206129 
1033.845376  	0.209207 
1035.774192  	0.212622 
1037.703008  	0.216802 
1039.631824  	0.222611 
1041.560640  	0.229764 
1043.489456  	0.239427 
1045.418272  	0.251253 
1047.347088  	0.264819 
1049.275904  	0.279098 
1051.204720  	0.293314 
1053.133536  	0.304945 
1055.062352  	0.314039 
1056.991168  	0.319141 
1058.919984  	0.322404 
1060.848800  	0.322907 
1062.777616  	0.321999 
1064.706432  	0.319213 
1066.635248  	0.315130 
1068.564064  	0.309672 
1070.492880  	0.304026 
1072.421696  	0.297583 
1074.350512  	0.291527 
1076.279328  	0.286423 
1078.208144  	0.283068 
1080.136960  	0.280165 
1082.065776  	0.277447 
1083.994592  	0.274187 
1085.923408  	0.271037 
1087.852224  	0.267204 
1089.781040  	0.262635 
1091.709856  	0.256029 
1093.638672  	0.248244 
1095.567488  	0.239075 
1097.496304  	0.229574 
1099.425120  	0.219152 
1101.353936  	0.208711 
1103.282752  	0.198095 
1105.211568  	0.187514 
1107.140384  	0.176909 
1109.069200  	0.166441 
1110.998016  	0.156574 
1112.926832  	0.147433 
1114.855648  	0.138784 
1116.784464  	0.130379 
1118.713280  	0.122708 
1120.642096  	0.115849 
1122.570912  	0.109289 
1124.499728  	0.103339 
1126.428544  	0.097761 
1128.357360  	0.092589 
1130.286176  	0.088013 
1132.214992  	0.084122 
1134.143808  	0.080546 
1136.072624  	0.077178 
1138.001440  	0.074128 
1139.930256  	0.071253 
1141.859072  	0.068693 
1143.787888  	0.066253 
1145.716704  	0.063993 
1147.645520  	0.062325 
1149.574336  	0.061143 
1151.503152  	0.060146 
1153.431968  	0.059957 
1155.360784  	0.060188 
1157.289600  	0.060566 
1159.218416  	0.061249 
1161.147232  	0.062634 
1163.076048  	0.064004 
1165.004864  	0.065516 
1166.933680  	0.067177 
1168.862496  	0.069292 
1170.791312  	0.071501 
1172.720128  	0.073562 
1174.648944  	0.075797 
1176.577760  	0.078391 
1178.506576  	0.081010 
1180.435392  	0.083414 
1182.364208  	0.085752 
1184.293024  	0.088356 
1186.221840  	0.091331 
1188.150656  	0.094497 
1190.079472  	0.098173 
1192.008288  	0.102713 
1193.937104  	0.107821 
1195.865920  	0.113715 
1197.794736  	0.120182 
1199.723552  	0.126932 
1201.652368  	0.133897 
1203.581184  	0.141189 
1205.510000  	0.148449 
1207.438816  	0.155730 
1209.367632  	0.162765 
1211.296448  	0.169344 
1213.225264  	0.175484 
1215.154080  	0.180459 
1217.082896  	0.184636 
1219.011712  	0.188013 
1220.940528  	0.191222 
1222.869344  	0.193598 
1224.798160  	0.195413 
1226.726976  	0.196568 
1228.655792  	0.197325 
1230.584608  	0.197091 
1232.513424  	0.196061 
1234.442240  	0.193695 
1236.371056  	0.190834 
1238.299872  	0.187113 
1240.228688  	0.182486 
1242.157504  	0.176831 
1244.086320  	0.170664 
1246.015136  	0.163947 
1247.943952  	0.157109 
1249.872768  	0.150185 
1251.801584  	0.143354 
1253.730400  	0.136508 
1255.659216  	0.129961 
1257.588032  	0.123653 
1259.516848  	0.117434 
1261.445664  	0.111626 
1263.374480  	0.106561 
1265.303296  	0.101897 
1267.232112  	0.097881 
1269.160928  	0.094913 
1271.089744  	0.092853 
1273.018560  	0.091734 
1274.947376  	0.091227 
1276.876192  	0.090732 
1278.805008  	0.089836 
1280.733824  	0.088285 
1282.662640  	0.085628 
1284.591456  	0.082078 
1286.520272  	0.078426 
1288.449088  	0.075542 
1290.377904  	0.073430 
1292.306720  	0.071610 
1294.235536  	0.069509 
1296.164352  	0.066550 
1298.093168  	0.063008 
1300.021984  	0.059600 
1301.950800  	0.056399 
1303.879616  	0.053636 
1305.808432  	0.051291 
1307.737248  	0.049359 
1309.666064  	0.047653 
1311.594880  	0.046536 
1313.523696  	0.045893 
1315.452512  	0.045617 
1317.381328  	0.045759 
1319.310144  	0.046358 
1321.238960  	0.047244 
1323.167776  	0.048220 
1325.096592  	0.048839 
1327.025408  	0.049031 
1328.954224  	0.048693 
1330.883040  	0.048076 
1332.811856  	0.047080 
1334.740672  	0.045998 
1336.669488  	0.044796 
1338.598304  	0.043930 
1340.527120  	0.043564 
1342.455936  	0.043564 
1344.384752  	0.043700 
1346.313568  	0.044314 
1348.242384  	0.045415 
1350.171200  	0.047031 
1352.100016  	0.048951 
1354.028832  	0.050943 
1355.957648  	0.053172 
1357.886464  	0.055374 
1359.815280  	0.056931 
1361.744096  	0.058315 
1363.672912  	0.060391 
1365.601728  	0.061930 
1367.530544  	0.062550 
1369.459360  	0.062948 
1371.388176  	0.062492 
1373.316992  	0.061008 
1375.245808  	0.059527 
1377.174624  	0.058146 
1379.103440  	0.056334 
1381.032256  	0.054741 
1382.961072  	0.053273 
1384.889888  	0.051776 
1386.818704  	0.050238 
1388.747520  	0.049434 
1390.676336  	0.048385 
1392.605152  	0.047034 
1394.533968  	0.045837 
1396.462784  	0.045910 
1398.391600  	0.046129 
1400.320416  	0.047400 
1402.249232  	0.048461 
1404.178048  	0.049276 
1406.106864  	0.050820 
1408.035680  	0.052658 
1409.964496  	0.054278 
1411.893312  	0.056246 
1413.822128  	0.057939 
1415.750944  	0.058931 
1417.679760  	0.058641 
1419.608576  	0.058703 
1421.537392  	0.058899 
1423.466208  	0.057946 
1425.395024  	0.056695 
1427.323840  	0.055060 
1429.252656  	0.053010 
1431.181472  	0.051803 
1433.110288  	0.051284 
1435.039104  	0.050567 
1436.967920  	0.050944 
1438.896736  	0.052602 
1440.825552  	0.053388 
1442.754368  	0.053937 
1444.683184  	0.053850 
1446.612000  	0.053474 
1448.540816  	0.053686 
1450.469632  	0.054307 
1452.398448  	0.054205 
1454.327264  	0.053515 
1456.256080  	0.052050 
1458.184896  	0.053061 
1460.113712  	0.054699 
1462.042528  	0.055343 
1463.971344  	0.055241 
1465.900160  	0.057366 
1467.828976  	0.059852 
1469.757792  	0.061791 
1471.686608  	0.063560 
1473.615424  	0.068548 
1475.544240  	0.072829 
1477.473056  	0.076413 
1479.401872  	0.078157 
1481.330688  	0.078922 
1483.259504  	0.079182 
1485.188320  	0.078322 
1487.117136  	0.076017 
1489.045952  	0.073448 
1490.974768  	0.070963 
1492.903584  	0.068679 
1494.832400  	0.064799 
1496.761216  	0.060362 
1498.690032  	0.057050 
1500.618848  	0.054812 
1502.547664  	0.052357 
1504.476480  	0.048720 
1506.405296  	0.044110 
1508.334112  	0.044466 
1510.262928  	0.044934 
1512.191744  	0.044326 
1514.120560  	0.043210 
1516.049376  	0.042225 
1517.978192  	0.043021 
1519.907008  	0.043703 
1521.835824  	0.045794 
1523.764640  	0.049312 
1525.693456  	0.051831 
1527.622272  	0.054598 
1529.551088  	0.056298 
1531.479904  	0.056050 
1533.408720  	0.054871 
1535.337536  	0.054608 
1537.266352  	0.051889 
1539.195168  	0.046862 
1541.123984  	0.044419 
1543.052800  	0.044745 
1544.981616  	0.044354 
1546.910432  	0.044250 
1548.839248  	0.043271 
1550.768064  	0.043354 
1552.696880  	0.043171 
1554.625696  	0.043181 
1556.554512  	0.042200 
1558.483328  	0.040948 
1560.412144  	0.047585 
1562.340960  	0.051560 
1564.269776  	0.053800 
1566.198592  	0.057658 
1568.127408  	0.060202 
1570.056224  	0.065144 
1571.985040  	0.070194 
1573.913856  	0.072149 
1575.842672  	0.073044 
1577.771488  	0.076031 
1579.700304  	0.076759 
1581.629120  	0.076770 
1583.557936  	0.076922 
1585.486752  	0.078428 
1587.415568  	0.081066 
1589.344384  	0.085158 
1591.273200  	0.089923 
1593.202016  	0.095497 
1595.130832  	0.100927 
1597.059648  	0.106592 
1598.988464  	0.110921 
1600.917280  	0.114266 
1602.846096  	0.116027 
1604.774912  	0.117050 
1606.703728  	0.116685 
1608.632544  	0.116121 
1610.561360  	0.115250 
1612.490176  	0.114890 
1614.418992  	0.114043 
1616.347808  	0.114494 
1618.276624  	0.118203 
1620.205440  	0.122476 
1622.134256  	0.126135 
1624.063072  	0.133271 
1625.991888  	0.140076 
1627.920704  	0.147363 
1629.849520  	0.155717 
1631.778336  	0.163038 
1633.707152  	0.167878 
1635.635968  	0.174304 
1637.564784  	0.182740 
1639.493600  	0.188374 
1641.422416  	0.192350 
1643.351232  	0.195043 
1645.280048  	0.195099 
1647.208864  	0.195251 
1649.137680  	0.196492 
1651.066496  	0.195278 
1652.995312  	0.190786 
1654.924128  	0.192218 
1656.852944  	0.192064 
1658.781760  	0.190373 
1660.710576  	0.187919 
1662.639392  	0.185243 
1664.568208  	0.183649 
1666.497024  	0.181892 
1668.425840  	0.178510 
1670.354656  	0.176319 
1672.283472  	0.175661 
1674.212288  	0.174521 
1676.141104  	0.174166 
1678.069920  	0.174833 
1679.998736  	0.174422 
1681.927552  	0.173393 
1683.856368  	0.171448 
1685.785184  	0.173789 
1687.714000  	0.173893 
1689.642816  	0.172643 
1691.571632  	0.171165 
1693.500448  	0.168589 
1695.429264  	0.163594 
1697.358080  	0.159776 
1699.286896  	0.155714 
1701.215712  	0.150994 
1703.144528  	0.147993 
1705.073344  	0.142785 
1707.002160  	0.137782 
1708.930976  	0.133284 
1710.859792  	0.127661 
1712.788608  	0.120996 
1714.717424  	0.113542 
1716.646240  	0.105592 
1718.575056  	0.098324 
1720.503872  	0.092726 
1722.432688  	0.086836 
1724.361504  	0.080016 
1726.290320  	0.073863 
1728.219136  	0.067440 
1730.147952  	0.061258 
1732.076768  	0.055353 
1734.005584  	0.049449 
1735.934400  	0.045317 
1737.863216  	0.041929 
1739.792032  	0.037094 
1741.720848  	0.034012 
1743.649664  	0.030885 
1745.578480  	0.028091 
1747.507296  	0.024798 
1749.436112  	0.022694 
1751.364928  	0.021766 
1753.293744  	0.021511 
1755.222560  	0.019832 
1757.151376  	0.018744 
1759.080192  	0.017817 
1761.009008  	0.016982 
1762.937824  	0.016731 
1764.866640  	0.016611 
1766.795456  	0.015323 
1768.724272  	0.014751 
1770.653088  	0.013122 
1772.581904  	0.012983 
1774.510720  	0.013910 
1776.439536  	0.014176 
1778.368352  	0.013829 
1780.297168  	0.013668 
1782.225984  	0.013595 
1784.154800  	0.013555 
1786.083616  	0.013562 
1788.012432  	0.013193 
1789.941248  	0.011843 
1791.870064  	0.011387 
1793.798880  	0.012024 
1795.727696  	0.012466 
1797.656512  	0.011974 
1799.585328  	0.011491 
1801.514144  	0.011499 
1803.442960  	0.011788 
1805.371776  	0.011451 
1807.300592  	0.011240 
1809.229408  	0.010601 
1811.158224  	0.010815 
1813.087040  	0.011127 
1815.015856  	0.011003 
1816.944672  	0.010685 
1818.873488  	0.011028 
1820.802304  	0.011053 
1822.731120  	0.010726 
1824.659936  	0.010003 
1826.588752  	0.010305 
1828.517568  	0.009836 
1830.446384  	0.010466 
1832.375200  	0.010960 
1834.304016  	0.010816 
1836.232832  	0.010583 
1838.161648  	0.010960 
1840.090464  	0.010838 
1842.019280  	0.010064 
1843.948096  	0.009251 
1845.876912  	0.010401 
1847.805728  	0.010697 
1849.734544  	0.010969 
1851.663360  	0.010769 
1853.592176  	0.010926 
1855.520992  	0.010728 
1857.449808  	0.010853 
1859.378624  	0.010703 
1861.307440  	0.010630 
1863.236256  	0.010274 
1865.165072  	0.010092 
1867.093888  	0.009550 
1869.022704  	0.010007 
1870.951520  	0.010276 
1872.880336  	0.010461 
1874.809152  	0.010301 
1876.737968  	0.010506 
1878.666784  	0.010299 
1880.595600  	0.010263 
1882.524416  	0.010154 
1884.453232  	0.010294 
1886.382048  	0.009818 
1888.310864  	0.009526 
1890.239680  	0.009923 
1892.168496  	0.010523 
1894.097312  	0.009840 
1896.026128  	0.010249 
1897.954944  	0.010448 
1899.883760  	0.010363 
1901.812576  	0.010159 
1903.741392  	0.010464 
1905.670208  	0.010241 
1907.599024  	0.010078 
1909.527840  	0.009735 
1911.456656  	0.010006 
1913.385472  	0.010138 
1915.314288  	0.010197 
1917.243104  	0.009604 
1919.171920  	0.009807 
1921.100736  	0.009882 
1923.029552  	0.010363 
1924.958368  	0.009943 
1926.887184  	0.010131 
1928.816000  	0.010108 
1930.744816  	0.009944 
1932.673632  	0.009394 
1934.602448  	0.009754 
1936.531264  	0.009965 
1938.460080  	0.010023 
1940.388896  	0.009567 
1942.317712  	0.009444 
1944.246528  	0.009545 
1946.175344  	0.010668 
1948.104160  	0.010251 
1950.032976  	0.010099 
1951.961792  	0.010176 
1953.890608  	0.010772 
1955.819424  	0.010295 
1957.748240  	0.010253 
1959.677056  	0.010398 
1961.605872  	0.010584 
1963.534688  	0.010189 
1965.463504  	0.011096 
1967.392320  	0.010592 
1969.321136  	0.011128 
1971.249952  	0.010896 
1973.178768  	0.011224 
1975.107584  	0.009915 
1977.036400  	0.010438 
1978.965216  	0.012781 
1980.894032  	0.013138 
1982.822848  	0.011291 
1984.751664  	0.012115 
1986.680480  	0.012111 
1988.609296  	0.011712 
1990.538112  	0.011251 
1992.466928  	0.012008 
1994.395744  	0.011620 
1996.324560  	0.011683 
1998.253376  	0.011679 
2000.182192  	0.011572 
2002.111008  	0.011084 
2004.039824  	0.011143 
2005.968640  	0.010313 
2007.897456  	0.011827 
2009.826272  	0.011882 
2011.755088  	0.010733 
2013.683904  	0.010650 
2015.612720  	0.012265 
2017.541536  	0.011614 
2019.470352  	0.011251 
2021.399168  	0.011010 
2023.327984  	0.012113 
2025.256800  	0.011815 
2027.185616  	0.010572 
2029.114432  	0.010262 
2031.043248  	0.011881 
2032.972064  	0.011709 
2034.900880  	0.011870 
2036.829696  	0.011932 
2038.758512  	0.012273 
2040.687328  	0.012063 
2042.616144  	0.011853 
2044.544960  	0.011033 
2046.473776  	0.011674 
2048.402592  	0.011752 
2050.331408  	0.012795 
2052.260224  	0.012088 
2054.189040  	0.011132 
2056.117856  	0.010187 
2058.046672  	0.010306 
2059.975488  	0.010362 
2061.904304  	0.010731 
2063.833120  	0.011737 
2065.761936  	0.012151 
2067.690752  	0.011419 
2069.619568  	0.011200 
2071.548384  	0.010013 
2073.477200  	0.010096 
2075.406016  	0.011234 
2077.334832  	0.011971 
2079.263648  	0.011323 
2081.192464  	0.010999 
2083.121280  	0.011532 
2085.050096  	0.011703 
2086.978912  	0.010982 
2088.907728  	0.010888 
2090.836544  	0.010709 
2092.765360  	0.010813 
2094.694176  	0.011170 
2096.622992  	0.011160 
2098.551808  	0.010528 
2100.480624  	0.010623 
2102.409440  	0.010504 
2104.338256  	0.011250 
2106.267072  	0.011714 
2108.195888  	0.012080 
2110.124704  	0.012100 
2112.053520  	0.011807 
2113.982336  	0.011655 
2115.911152  	0.011977 
2117.839968  	0.011260 
2119.768784  	0.010575 
2121.697600  	0.010432 
2123.626416  	0.010461 
2125.555232  	0.010589 
2127.484048  	0.010951 
2129.412864  	0.010786 
2131.341680  	0.010304 
2133.270496  	0.010242 
2135.199312  	0.010957 
2137.128128  	0.011422 
2139.056944  	0.011347 
2140.985760  	0.010426 
2142.914576  	0.011234 
2144.843392  	0.011538 
2146.772208  	0.011742 
2148.701024  	0.011685 
2150.629840  	0.011666 
2152.558656  	0.010688 
2154.487472  	0.010395 
2156.416288  	0.010659 
2158.345104  	0.013531 
2160.273920  	0.016538 
2162.202736  	0.016577 
2164.131552  	0.015270 
2166.060368  	0.016295 
2167.989184  	0.015053 
2169.918000  	0.013929 
2171.846816  	0.013385 
2173.775632  	0.013938 
2175.704448  	0.014501 
2177.633264  	0.015011 
2179.562080  	0.014122 
2181.490896  	0.013938 
2183.419712  	0.014534 
2185.348528  	0.015082 
2187.277344  	0.014060 
2189.206160  	0.013777 
2191.134976  	0.014271 
2193.063792  	0.015412 
2194.992608  	0.015086 
2196.921424  	0.014013 
2198.850240  	0.014169 
2200.779056  	0.014457 
2202.707872  	0.013886 
2204.636688  	0.013912 
2206.565504  	0.014035 
2208.494320  	0.013915 
2210.423136  	0.012624 
2212.351952  	0.013006 
2214.280768  	0.013401 
2216.209584  	0.012892 
2218.138400  	0.012323 
2220.067216  	0.012430 
2221.996032  	0.012679 
2223.924848  	0.012710 
2225.853664  	0.013013 
2227.782480  	0.013560 
2229.711296  	0.013560 
2231.640112  	0.013194 
2233.568928  	0.012308 
2235.497744  	0.012517 
2237.426560  	0.012770 
2239.355376  	0.012829 
2241.284192  	0.012301 
2243.213008  	0.012639 
2245.141824  	0.012464 
2247.070640  	0.011610 
2248.999456  	0.011587 
2250.928272  	0.012258 
2252.857088  	0.012275 
2254.785904  	0.012281 
2256.714720  	0.012877 
2258.643536  	0.013669 
2260.572352  	0.013453 
2262.501168  	0.013377 
2264.429984  	0.013358 
2266.358800  	0.013557 
2268.287616  	0.013415 
2270.216432  	0.013281 
2272.145248  	0.012698 
2274.074064  	0.012761 
2276.002880  	0.012869 
2277.931696  	0.013302 
2279.860512  	0.013806 
2281.789328  	0.013892 
2283.718144  	0.013762 
2285.646960  	0.014134 
2287.575776  	0.014024 
2289.504592  	0.013433 
2291.433408  	0.012931 
2293.362224  	0.012976 
2295.291040  	0.012975 
2297.219856  	0.012950 
2299.148672  	0.012744 
2301.077488  	0.012542 
2303.006304  	0.012562 
2304.935120  	0.012553 
2306.863936  	0.012071 
2308.792752  	0.011753 
2310.721568  	0.011797 
2312.650384  	0.011647 
2314.579200  	0.011311 
2316.508016  	0.010985 
2318.436832  	0.010382 
2320.365648  	0.010014 
2322.294464  	0.009846 
2324.223280  	0.009558 
2326.152096  	0.007800 
2328.080912  	0.006521 
2330.009728  	0.006049 
2331.938544  	0.005941 
2333.867360  	0.005402 
2335.796176  	0.004890 
2337.724992  	0.004551 
2339.653808  	0.004523 
2341.582624  	0.004485 
2343.511440  	0.005466 
2345.440256  	0.006712 
2347.369072  	0.008141 
2349.297888  	0.007929 
2351.226704  	0.006262 
2353.155520  	0.004846 
2355.084336  	0.003684 
2357.013152  	0.002365 
2358.941968  	0.001650 
2360.870784  	0.001655 
2362.799600  	0.002351 
2364.728416  	0.002890 
2366.657232  	0.003771 
2368.586048  	0.004858 
2370.514864  	0.006422 
2372.443680  	0.007847 
2374.372496  	0.009412 
2376.301312  	0.010736 
2378.230128  	0.011895 
2380.158944  	0.012425 
2382.087760  	0.012789 
2384.016576  	0.013074 
2385.945392  	0.013335 
2387.874208  	0.013184 
2389.803024  	0.013067 
2391.731840  	0.012889 
2393.660656  	0.012969 
2395.589472  	0.013147 
2397.518288  	0.013298 
2399.447104  	0.013255 
2401.375920  	0.013020 
2403.304736  	0.013100 
2405.233552  	0.013336 
2407.162368  	0.013623 
2409.091184  	0.013629 
2411.020000  	0.013510 
2412.948816  	0.013634 
2414.877632  	0.013658 
2416.806448  	0.013819 
2418.735264  	0.014012 
2420.664080  	0.014061 
2422.592896  	0.013933 
2424.521712  	0.014009 
2426.450528  	0.014202 
2428.379344  	0.014204 
2430.308160  	0.014172 
2432.236976  	0.014168 
2434.165792  	0.014472 
2436.094608  	0.015079 
2438.023424  	0.015201 
2439.952240  	0.015095 
2441.881056  	0.015134 
2443.809872  	0.015170 
2445.738688  	0.015087 
2447.667504  	0.015153 
2449.596320  	0.015301 
2451.525136  	0.015327 
2453.453952  	0.015250 
2455.382768  	0.015486 
2457.311584  	0.015629 
2459.240400  	0.015628 
2461.169216  	0.015584 
2463.098032  	0.015605 
2465.026848  	0.015743 
2466.955664  	0.015856 
2468.884480  	0.015717 
2470.813296  	0.015744 
2472.742112  	0.015627 
2474.670928  	0.015664 
2476.599744  	0.015787 
2478.528560  	0.015950 
2480.457376  	0.016051 
2482.386192  	0.016078 
2484.315008  	0.016119 
2486.243824  	0.016302 
2488.172640  	0.016278 
2490.101456  	0.016426 
2492.030272  	0.016612 
2493.959088  	0.016596 
2495.887904  	0.016404 
2497.816720  	0.016443 
2499.745536  	0.016717 
2501.674352  	0.016849 
2503.603168  	0.016795 
2505.531984  	0.017003 
2507.460800  	0.017193 
2509.389616  	0.017021 
2511.318432  	0.016799 
2513.247248  	0.016965 
2515.176064  	0.017180 
2517.104880  	0.017659 
2519.033696  	0.017894 
2520.962512  	0.017729 
2522.891328  	0.017828 
2524.820144  	0.017942 
2526.748960  	0.017843 
2528.677776  	0.018114 
2530.606592  	0.018203 
2532.535408  	0.018323 
2534.464224  	0.018631 
2536.393040  	0.018697 
2538.321856  	0.018585 
2540.250672  	0.018581 
2542.179488  	0.018498 
2544.108304  	0.018608 
2546.037120  	0.018752 
2547.965936  	0.019209 
2549.894752  	0.019408 
2551.823568  	0.019195 
2553.752384  	0.019091 
2555.681200  	0.019259 
2557.610016  	0.019283 
2559.538832  	0.019521 
2561.467648  	0.019604 
2563.396464  	0.019748 
2565.325280  	0.020061 
2567.254096  	0.020130 
2569.182912  	0.019863 
2571.111728  	0.019751 
2573.040544  	0.019704 
2574.969360  	0.019734 
2576.898176  	0.019926 
2578.826992  	0.020352 
2580.755808  	0.020336 
2582.684624  	0.020295 
2584.613440  	0.020249 
2586.542256  	0.020406 
2588.471072  	0.020569 
2590.399888  	0.020580 
2592.328704  	0.020566 
2594.257520  	0.020597 
2596.186336  	0.020834 
2598.115152  	0.021049 
2600.043968  	0.020940 
2601.972784  	0.021017 
2603.901600  	0.021378 
2605.830416  	0.021619 
2607.759232  	0.021281 
2609.688048  	0.021202 
2611.616864  	0.021476 
2613.545680  	0.021636 
2615.474496  	0.021533 
2617.403312  	0.021612 
2619.332128  	0.021930 
2621.260944  	0.022074 
2623.189760  	0.021986 
2625.118576  	0.022079 
2627.047392  	0.022329 
2628.976208  	0.022524 
2630.905024  	0.022571 
2632.833840  	0.022827 
2634.762656  	0.022991 
2636.691472  	0.022927 
2638.620288  	0.022887 
2640.549104  	0.023012 
2642.477920  	0.023088 
2644.406736  	0.023150 
2646.335552  	0.023411 
2648.264368  	0.023614 
2650.193184  	0.023717 
2652.122000  	0.023876 
2654.050816  	0.024058 
2655.979632  	0.024007 
2657.908448  	0.024022 
2659.837264  	0.024142 
2661.766080  	0.024121 
2663.694896  	0.024228 
2665.623712  	0.024226 
2667.552528  	0.024217 
2669.481344  	0.024351 
2671.410160  	0.024565 
2673.338976  	0.024749 
2675.267792  	0.024918 
2677.196608  	0.025054 
2679.125424  	0.025231 
2681.054240  	0.025284 
2682.983056  	0.025374 
2684.911872  	0.025566 
2686.840688  	0.025686 
2688.769504  	0.025804 
2690.698320  	0.025864 
2692.627136  	0.025961 
2694.555952  	0.026080 
2696.484768  	0.026081 
2698.413584  	0.026220 
2700.342400  	0.026385 
2702.271216  	0.026431 
2704.200032  	0.026653 
2706.128848  	0.026921 
2708.057664  	0.026970 
2709.986480  	0.027098 
2711.915296  	0.027234 
2713.844112  	0.027282 
2715.772928  	0.027412 
2717.701744  	0.027639 
2719.630560  	0.027728 
2721.559376  	0.027909 
2723.488192  	0.028065 
2725.417008  	0.028256 
2727.345824  	0.028363 
2729.274640  	0.028374 
2731.203456  	0.028484 
2733.132272  	0.028611 
2735.061088  	0.028796 
2736.989904  	0.029034 
2738.918720  	0.029147 
2740.847536  	0.029139 
2742.776352  	0.029244 
2744.705168  	0.029430 
2746.633984  	0.029503 
2748.562800  	0.029593 
2750.491616  	0.029743 
2752.420432  	0.029798 
2754.349248  	0.029885 
2756.278064  	0.030050 
2758.206880  	0.030091 
2760.135696  	0.030241 
2762.064512  	0.030223 
2763.993328  	0.030204 
2765.922144  	0.030331 
2767.850960  	0.030415 
2769.779776  	0.030444 
2771.708592  	0.030457 
2773.637408  	0.030453 
2775.566224  	0.030590 
2777.495040  	0.030634 
2779.423856  	0.030716 
2781.352672  	0.030905 
2783.281488  	0.031073 
2785.210304  	0.031149 
2787.139120  	0.031236 
2789.067936  	0.031253 
2790.996752  	0.031420 
2792.925568  	0.031611 
2794.854384  	0.031756 
2796.783200  	0.031842 
2798.712016  	0.031810 
2800.640832  	0.031792 
2802.569648  	0.031981 
2804.498464  	0.032178 
2806.427280  	0.032237 
2808.356096  	0.032341 
2810.284912  	0.032461 
2812.213728  	0.032495 
2814.142544  	0.032582 
2816.071360  	0.032804 
2818.000176  	0.032838 
2819.928992  	0.032740 
2821.857808  	0.032795 
2823.786624  	0.032915 
2825.715440  	0.033003 
2827.644256  	0.032925 
2829.573072  	0.032937 
2831.501888  	0.032926 
2833.430704  	0.032946 
2835.359520  	0.032873 
2837.288336  	0.032745 
2839.217152  	0.032736 
2841.145968  	0.032762 
2843.074784  	0.032755 
2845.003600  	0.032834 
2846.932416  	0.033072 
2848.861232  	0.033262 
2850.790048  	0.033391 
2852.718864  	0.033462 
2854.647680  	0.033442 
2856.576496  	0.033488 
2858.505312  	0.033445 
2860.434128  	0.033456 
2862.362944  	0.033539 
2864.291760  	0.033619 
2866.220576  	0.033640 
2868.149392  	0.033915 
2870.078208  	0.034499 
2872.007024  	0.034951 
2873.935840  	0.035341 
2875.864656  	0.035821 
2877.793472  	0.036500 
2879.722288  	0.037077 
2881.651104  	0.037358 
2883.579920  	0.037687 
2885.508736  	0.038033 
2887.437552  	0.038242 
2889.366368  	0.038364 
2891.295184  	0.038426 
2893.224000  	0.038592 
2895.152816  	0.038778 
2897.081632  	0.038664 
2899.010448  	0.038570 
2900.939264  	0.038789 
2902.868080  	0.039015 
2904.796896  	0.039224 
2906.725712  	0.039408 
2908.654528  	0.039623 
2910.583344  	0.039993 
2912.512160  	0.040723 
2914.440976  	0.041509 
2916.369792  	0.041913 
2918.298608  	0.042173 
2920.227424  	0.042674 
2922.156240  	0.043357 
2924.085056  	0.043821 
2926.013872  	0.044466 
2927.942688  	0.045245 
2929.871504  	0.045950 
2931.800320  	0.046530 
2933.729136  	0.047023 
2935.657952  	0.047305 
2937.586768  	0.047641 
2939.515584  	0.048041 
2941.444400  	0.048333 
2943.373216  	0.048526 
2945.302032  	0.048636 
2947.230848  	0.048728 
2949.159664  	0.048745 
2951.088480  	0.048676 
2953.017296  	0.048615 
2954.946112  	0.048391 
2956.874928  	0.048266 
2958.803744  	0.048074 
2960.732560  	0.047744 
2962.661376  	0.047586 
2964.590192  	0.047426 
2966.519008  	0.047211 
2968.447824  	0.046903 
2970.376640  	0.046735 
2972.305456  	0.046420 
2974.234272  	0.046114 
2976.163088  	0.045945 
2978.091904  	0.045720 
2980.020720  	0.045387 
2981.949536  	0.045262 
2983.878352  	0.045217 
2985.807168  	0.045045 
2987.735984  	0.045171 
2989.664800  	0.045377 
2991.593616  	0.045396 
2993.522432  	0.045272 
2995.451248  	0.045291 
2997.380064  	0.045410 
2999.308880  	0.045602 
3001.237696  	0.045815 
3003.166512  	0.045916 
3005.095328  	0.046145 
3007.024144  	0.046519 
3008.952960  	0.046662 
3010.881776  	0.046826 
3012.810592  	0.047069 
3014.739408  	0.047184 
3016.668224  	0.047504 
3018.597040  	0.047757 
3020.525856  	0.047859 
3022.454672  	0.048000 
3024.383488  	0.048293 
3026.312304  	0.048493 
3028.241120  	0.048653 
3030.169936  	0.048794 
3032.098752  	0.049253 
3034.027568  	0.049402 
3035.956384  	0.049465 
3037.885200  	0.049681 
3039.814016  	0.050028 
3041.742832  	0.050480 
3043.671648  	0.050679 
3045.600464  	0.050838 
3047.529280  	0.051231 
3049.458096  	0.051514 
3051.386912  	0.051628 
3053.315728  	0.051815 
3055.244544  	0.052182 
3057.173360  	0.052904 
3059.102176  	0.053369 
3061.030992  	0.053595 
3062.959808  	0.053881 
3064.888624  	0.054377 
3066.817440  	0.054962 
3068.746256  	0.055386 
3070.675072  	0.055693 
3072.603888  	0.056228 
3074.532704  	0.056823 
3076.461520  	0.057269 
3078.390336  	0.057528 
3080.319152  	0.057815 
3082.247968  	0.058348 
3084.176784  	0.058963 
3086.105600  	0.059311 
3088.034416  	0.059593 
3089.963232  	0.060079 
3091.892048  	0.060435 
3093.820864  	0.060738 
3095.749680  	0.061201 
3097.678496  	0.061544 
3099.607312  	0.061985 
3101.536128  	0.062362 
3103.464944  	0.062866 
3105.393760  	0.063392 
3107.322576  	0.063816 
3109.251392  	0.064127 
3111.180208  	0.064258 
3113.109024  	0.064238 
3115.037840  	0.064555 
3116.966656  	0.065152 
3118.895472  	0.065632 
3120.824288  	0.065931 
3122.753104  	0.066172 
3124.681920  	0.066429 
3126.610736  	0.066627 
3128.539552  	0.066893 
3130.468368  	0.067155 
3132.397184  	0.067499 
3134.326000  	0.067741 
3136.254816  	0.067890 
3138.183632  	0.068248 
3140.112448  	0.068516 
3142.041264  	0.068719 
3143.970080  	0.069036 
3145.898896  	0.069250 
3147.827712  	0.069530 
3149.756528  	0.070002 
3151.685344  	0.070451 
3153.614160  	0.070849 
3155.542976  	0.071183 
3157.471792  	0.071492 
3159.400608  	0.071941 
3161.329424  	0.072307 
3163.258240  	0.072606 
3165.187056  	0.072919 
3167.115872  	0.073220 
3169.044688  	0.073362 
3170.973504  	0.073412 
3172.902320  	0.073621 
3174.831136  	0.073958 
3176.759952  	0.074251 
3178.688768  	0.074521 
3180.617584  	0.074525 
3182.546400  	0.074421 
3184.475216  	0.074805 
3186.404032  	0.075085 
3188.332848  	0.075081 
3190.261664  	0.075262 
3192.190480  	0.075294 
3194.119296  	0.075056 
3196.048112  	0.075000 
3197.976928  	0.075215 
3199.905744  	0.075198 
3201.834560  	0.075060 
3203.763376  	0.075191 
3205.692192  	0.075259 
3207.621008  	0.075116 
3209.549824  	0.074808 
3211.478640  	0.074537 
3213.407456  	0.074363 
3215.336272  	0.074405 
3217.265088  	0.074262 
3219.193904  	0.073872 
3221.122720  	0.073483 
3223.051536  	0.073344 
3224.980352  	0.073240 
3226.909168  	0.072942 
3228.837984  	0.072730 
3230.766800  	0.072585 
3232.695616  	0.072623 
3234.624432  	0.072535 
3236.553248  	0.072436 
3238.482064  	0.072324 
3240.410880  	0.072158 
3242.339696  	0.071983 
3244.268512  	0.071858 
3246.197328  	0.071976 
3248.126144  	0.072075 
3250.054960  	0.072084 
3251.983776  	0.071868 
3253.912592  	0.071985 
3255.841408  	0.072299 
3257.770224  	0.072501 
3259.699040  	0.072581 
3261.627856  	0.072631 
3263.556672  	0.072683 
3265.485488  	0.072652 
3267.414304  	0.072785 
3269.343120  	0.072981 
3271.271936  	0.073156 
3273.200752  	0.073419 
3275.129568  	0.073499 
3277.058384  	0.073510 
3278.987200  	0.073706 
3280.916016  	0.073872 
3282.844832  	0.073978 
3284.773648  	0.074029 
3286.702464  	0.074067 
3288.631280  	0.074389 
3290.560096  	0.074611 
3292.488912  	0.074898 
3294.417728  	0.075022 
3296.346544  	0.075123 
3298.275360  	0.075287 
3300.204176  	0.075465 
3302.132992  	0.075694 
3304.061808  	0.076081 
3305.990624  	0.076431 
3307.919440  	0.076581 
3309.848256  	0.076583 
3311.777072  	0.076562 
3313.705888  	0.076897 
3315.634704  	0.077473 
3317.563520  	0.077776 
3319.492336  	0.077816 
3321.421152  	0.077895 
3323.349968  	0.078051 
3325.278784  	0.078235 
3327.207600  	0.078338 
3329.136416  	0.078312 
3331.065232  	0.078256 
3332.994048  	0.078394 
3334.922864  	0.078567 
3336.851680  	0.078499 
3338.780496  	0.078222 
3340.709312  	0.078045 
3342.638128  	0.077966 
3344.566944  	0.077747 
3346.495760  	0.077560 
3348.424576  	0.077476 
3350.353392  	0.077272 
3352.282208  	0.077006 
3354.211024  	0.076801 
3356.139840  	0.076495 
3358.068656  	0.076241 
3359.997472  	0.075970 
3361.926288  	0.075659 
3363.855104  	0.075274 
3365.783920  	0.074900 
3367.712736  	0.074583 
3369.641552  	0.074231 
3371.570368  	0.073901 
3373.499184  	0.073656 
3375.428000  	0.073189 
3377.356816  	0.072868 
3379.285632  	0.072696 
3381.214448  	0.072474 
3383.143264  	0.072151 
3385.072080  	0.071987 
3387.000896  	0.071607 
3388.929712  	0.071227 
3390.858528  	0.070766 
3392.787344  	0.070386 
3394.716160  	0.070004 
3396.644976  	0.069514 
3398.573792  	0.069243 
3400.502608  	0.068872 
3402.431424  	0.068409 
3404.360240  	0.068045 
3406.289056  	0.067725 
3408.217872  	0.067368 
3410.146688  	0.066991 
3412.075504  	0.066819 
3414.004320  	0.066575 
3415.933136  	0.066219 
3417.861952  	0.065667 
3419.790768  	0.065292 
3421.719584  	0.065053 
3423.648400  	0.064439 
3425.577216  	0.064029 
3427.506032  	0.063910 
3429.434848  	0.063313 
3431.363664  	0.062918 
3433.292480  	0.062780 
3435.221296  	0.062528 
3437.150112  	0.062053 
3439.078928  	0.061572 
3441.007744  	0.061082 
3442.936560  	0.060764 
3444.865376  	0.060085 
3446.794192  	0.059296 
3448.723008  	0.059261 
3450.651824  	0.059050 
3452.580640  	0.058460 
3454.509456  	0.057718 
3456.438272  	0.057121 
3458.367088  	0.056873 
3460.295904  	0.056475 
3462.224720  	0.055925 
3464.153536  	0.055378 
3466.082352  	0.054894 
3468.011168  	0.054475 
3469.939984  	0.053955 
3471.868800  	0.053329 
3473.797616  	0.052812 
3475.726432  	0.052293 
3477.655248  	0.051705 
3479.584064  	0.051051 
3481.512880  	0.050491 
3483.441696  	0.050020 
3485.370512  	0.049288 
3487.299328  	0.048730 
3489.228144  	0.048344 
3491.156960  	0.047609 
3493.085776  	0.046994 
3495.014592  	0.046573 
3496.943408  	0.046154 
3498.872224  	0.045553 
3500.801040  	0.044933 
3502.729856  	0.044426 
3504.658672  	0.044079 
3506.587488  	0.043292 
3508.516304  	0.042715 
3510.445120  	0.042729 
3512.373936  	0.042743 
3514.302752  	0.042331 
3516.231568  	0.041572 
3518.160384  	0.041005 
3520.089200  	0.040655 
3522.018016  	0.040030 
3523.946832  	0.039655 
3525.875648  	0.039177 
3527.804464  	0.038726 
3529.733280  	0.038692 
3531.662096  	0.038545 
3533.590912  	0.038124 
3535.519728  	0.037597 
3537.448544  	0.037515 
3539.377360  	0.037065 
3541.306176  	0.036243 
3543.234992  	0.035422 
3545.163808  	0.035018 
3547.092624  	0.034846 
3549.021440  	0.034467 
3550.950256  	0.033846 
3552.879072  	0.033684 
3554.807888  	0.033641 
3556.736704  	0.033330 
3558.665520  	0.032864 
3560.594336  	0.032538 
3562.523152  	0.031846 
3564.451968  	0.030582 
3566.380784  	0.029722 
3568.309600  	0.030519 
3570.238416  	0.030719 
3572.167232  	0.029844 
3574.096048  	0.029233 
3576.024864  	0.029034 
3577.953680  	0.028660 
3579.882496  	0.028217 
3581.811312  	0.027830 
3583.740128  	0.026780 
3585.668944  	0.025336 
3587.597760  	0.025240 
3589.526576  	0.025912 
3591.455392  	0.024838 
3593.384208  	0.023950 
3595.313024  	0.023519 
3597.241840  	0.023089 
3599.170656  	0.022270 
3601.099472  	0.022050 
3603.028288  	0.022065 
3604.957104  	0.021151 
3606.885920  	0.019832 
3608.814736  	0.019991 
3610.743552  	0.019534 
3612.672368  	0.018324 
3614.601184  	0.018042 
3616.530000  	0.017007 
3618.458816  	0.016148 
3620.387632  	0.016898 
3622.316448  	0.016750 
3624.245264  	0.015736 
3626.174080  	0.013939 
3628.102896  	0.012466 
3630.031712  	0.014668 
3631.960528  	0.014493 
3633.889344  	0.013617 
3635.818160  	0.013196 
3637.746976  	0.012737 
3639.675792  	0.012713 
3641.604608  	0.012411 
3643.533424  	0.011499 
3645.462240  	0.009333 
3647.391056  	0.007343 
3649.319872  	0.007402 
3651.248688  	0.009757 
3653.177504  	0.010015 
3655.106320  	0.008524 
3657.035136  	0.009070 
3658.963952  	0.009246 
3660.892768  	0.008354 
3662.821584  	0.007755 
3664.750400  	0.007381 
3666.679216  	0.006248 
3668.608032  	0.004571 
3670.536848  	0.005588 
3672.465664  	0.005761 
3674.394480  	0.003272 
3676.323296  	0.005152 
3678.252112  	0.006087 
3680.180928  	0.005857 
3682.109744  	0.005893 
3684.038560  	0.005545 
3685.967376  	0.004081 
3687.896192  	0.002644 
3689.825008  	0.003561 
3691.753824  	0.004833 
3693.682640  	0.005290 
3695.611456  	0.004854 
3697.540272  	0.004818 
3699.469088  	0.004011 
3701.397904  	0.004115 
3703.326720  	0.005113 
3705.255536  	0.004826 
3707.184352  	0.003683 
3709.113168  	0.002525 
3711.041984  	0.002587 
3712.970800  	0.004512 
3714.899616  	0.005094 
3716.828432  	0.004484 
3718.757248  	0.003892 
3720.686064  	0.003454 
3722.614880  	0.003688 
3724.543696  	0.003790 
3726.472512  	0.004102 
3728.401328  	0.004114 
3730.330144  	0.002137 
3732.258960  	0.000772 
3734.187776  	0.001039 
3736.116592  	0.003199 
3738.045408  	0.004074 
3739.974224  	0.003234 
3741.903040  	0.001865 
3743.831856  	0.001784 
3745.760672  	0.004412 
3747.689488  	0.001882 
3749.618304  	0.000306 
3751.547120  	0.002439 
3753.475936  	0.005243 
3755.404752  	0.004658 
3757.333568  	0.003534 
3759.262384  	0.003716 
3761.191200  	0.005179 
3763.120016  	0.004753 
3765.048832  	0.003997 
3766.977648  	0.004180 
3768.906464  	0.003721 
3770.835280  	0.004813 
3772.764096  	0.005574 
3774.692912  	0.005342 
3776.621728  	0.004450 
3778.550544  	0.003855 
3780.479360  	0.004827 
3782.408176  	0.004825 
3784.336992  	0.004437 
3786.265808  	0.005019 
3788.194624  	0.005283 
3790.123440  	0.005149 
3792.052256  	0.004978 
3793.981072  	0.004203 
3795.909888  	0.003639 
3797.838704  	0.003949 
3799.767520  	0.002595 
3801.696336  	0.003218 
3803.625152  	0.004469 
3805.553968  	0.003211 
3807.482784  	0.004450 
3809.411600  	0.005440 
3811.340416  	0.005047 
3813.269232  	0.003965 
3815.198048  	0.002722 
3817.126864  	0.003769 
3819.055680  	0.002372 
3820.984496  	0.002425 
3822.913312  	0.005011 
3824.842128  	0.004383 
3826.770944  	0.004210 
3828.699760  	0.004365 
3830.628576  	0.003643 
3832.557392  	0.003711 
3834.486208  	0.003042 
3836.415024  	0.002152 
3838.343840  	0.002879 
3840.272656  	0.003778 
3842.201472  	0.004025 
3844.130288  	0.004497 
3846.059104  	0.005012 
3847.987920  	0.004359 
3849.916736  	0.002746 
3851.845552  	0.000676 
3853.774368  	0.003522 
3855.703184  	0.005940 
3857.632000  	0.005039 
3859.560816  	0.004207 
3861.489632  	0.003418 
3863.418448  	0.003273 
3865.347264  	0.004152 
3867.276080  	0.003720 
3869.204896  	0.002922 
3871.133712  	0.004819 
3873.062528  	0.004164 
3874.991344  	0.004888 
3876.920160  	0.004901 
3878.848976  	0.003482 
3880.777792  	0.004042 
3882.706608  	0.004575 
3884.635424  	0.003759 
3886.564240  	0.005235 
3888.493056  	0.004899 
3890.421872  	0.003993 
3892.350688  	0.005087 
3894.279504  	0.005377 
3896.208320  	0.004678 
3898.137136  	0.003727 
3900.065952  	0.003642 
3901.994768  	0.004012 
3903.923584  	0.004704 
3905.852400  	0.005712 
3907.781216  	0.005666 
3909.710032  	0.005280 
3911.638848  	0.005133 
3913.567664  	0.005017 
3915.496480  	0.004629 
3917.425296  	0.005092 
3919.354112  	0.005424 
3921.282928  	0.005478 
3923.211744  	0.004958 
3925.140560  	0.005185 
3927.069376  	0.005359 
3928.998192  	0.004865 
3930.927008  	0.004883 
3932.855824  	0.005615 
3934.784640  	0.005790 
3936.713456  	0.005722 
3938.642272  	0.005673 
3940.571088  	0.005090 
3942.499904  	0.005137 
3944.428720  	0.005583 
3946.357536  	0.005222 
3948.286352  	0.005206 
3950.215168  	0.005430 
3952.143984  	0.005376 
3954.072800  	0.005325 
3956.001616  	0.005289 
3957.930432  	0.005371 
3959.859248  	0.005647 
3961.788064  	0.005737 
3963.716880  	0.005721 
3965.645696  	0.005603 
3967.574512  	0.005738 
3969.503328  	0.005789 
3971.432144  	0.005572 
3973.360960  	0.005324 
3975.289776  	0.005382 
3977.218592  	0.005652 
3979.147408  	0.005790 
3981.076224  	0.005627 
3983.005040  	0.005540 
3984.933856  	0.005622 
3986.862672  	0.005700 
3988.791488  	0.005630 
3990.720304  	0.005676 
3992.649120  	0.005731 
3994.577936  	0.005782 
3996.506752  	0.005794 
3998.435568  	0.005825 
4000.364384  	0.005698 