##TITLE=No Description
##DATA TYPE=INFRARED SPECTRUM
##XUNITS=1/CM
##YUNITS=Abs
399.264912  	0.604303 
401.193728  	0.598256 
403.122544  	0.577931 
405.051360  	0.572306 
406.980176  	0.568432 
408.908992  	0.562435 
410.837808  	0.567083 
412.766624  	0.560850 
414.695440  	0.555949 
416.624256  	0.554474 
418.553072  	0.556732 
420.481888  	0.550123 
422.410704  	0.547711 
424.339520  	0.543583 
426.268336  	0.547172 
428.197152  	0.540212 
430.125968  	0.538815 
432.054784  	0.531772 
433.983600  	0.524004 
435.912416  	0.517836 
437.841232  	0.520257 
439.770048  	0.519964 
441.698864  	0.520867 
443.627680  	0.516111 
445.556496  	0.513403 
447.485312  	0.514548 
449.414128  	0.515782 
451.342944  	0.514070 
453.271760  	0.511394 
455.200576  	0.504805 
457.129392  	0.505724 
459.058208  	0.508328 
460.987024  	0.509313 
462.915840  	0.508066 
464.844656  	0.512285 
466.773472  	0.508448 
468.702288  	0.503718 
470.631104  	0.502606 
472.559920  	0.505142 
474.488736  	0.503211 
476.417552  	0.499696 
478.346368  	0.494090 
480.275184  	0.497164 
482.204000  	0.501414 
484.132816  	0.510340 
486.061632  	0.507523 
487.990448  	0.500897 
489.919264  	0.497679 
491.848080  	0.498273 
493.776896  	0.496756 
495.705712  	0.499284 
497.634528  	0.500442 
499.563344  	0.497295 
501.492160  	0.491938 
503.420976  	0.492789 
505.349792  	0.491944 
507.278608  	0.493457 
509.207424  	0.494652 
511.136240  	0.495808 
513.065056  	0.496615 
514.993872  	0.497440 
516.922688  	0.494666 
518.851504  	0.494740 
520.780320  	0.495638 
522.709136  	0.498029 
524.637952  	0.494430 
526.566768  	0.490755 
528.495584  	0.488279 
530.424400  	0.483667 
532.353216  	0.479542 
534.282032  	0.480068 
536.210848  	0.476871 
538.139664  	0.472645 
540.068480  	0.467602 
541.997296  	0.464186 
543.926112  	0.460335 
545.854928  	0.457842 
547.783744  	0.452978 
549.712560  	0.448724 
551.641376  	0.445682 
553.570192  	0.443889 
555.499008  	0.439916 
557.427824  	0.435969 
559.356640  	0.432165 
561.285456  	0.429031 
563.214272  	0.424391 
565.143088  	0.420936 
567.071904  	0.417540 
569.000720  	0.414698 
570.929536  	0.411268 
572.858352  	0.408201 
574.787168  	0.404666 
576.715984  	0.401342 
578.644800  	0.397347 
580.573616  	0.394077 
582.502432  	0.389844 
584.431248  	0.386552 
586.360064  	0.384864 
588.288880  	0.383801 
590.217696  	0.380982 
592.146512  	0.378302 
594.075328  	0.375474 
596.004144  	0.373244 
597.932960  	0.372005 
599.861776  	0.371496 
601.790592  	0.370046 
603.719408  	0.368567 
605.648224  	0.366921 
607.577040  	0.366348 
609.505856  	0.365611 
611.434672  	0.364403 
613.363488  	0.361942 
615.292304  	0.360357 
617.221120  	0.358410 
619.149936  	0.356928 
621.078752  	0.355202 
623.007568  	0.353248 
624.936384  	0.350993 
626.865200  	0.350176 
628.794016  	0.348716 
630.722832  	0.347176 
632.651648  	0.346217 
634.580464  	0.345851 
636.509280  	0.346252 
638.438096  	0.346157 
640.366912  	0.345453 
642.295728  	0.344461 
644.224544  	0.342016 
646.153360  	0.339258 
648.082176  	0.336133 
650.010992  	0.332929 
651.939808  	0.329289 
653.868624  	0.325823 
655.797440  	0.321834 
657.726256  	0.318395 
659.655072  	0.314514 
661.583888  	0.310940 
663.512704  	0.307342 
665.441520  	0.304458 
667.370336  	0.299491 
669.299152  	0.294175 
671.227968  	0.293678 
673.156784  	0.291545 
675.085600  	0.288510 
677.014416  	0.286626 
678.943232  	0.284897 
680.872048  	0.282900 
682.800864  	0.281352 
684.729680  	0.280461 
686.658496  	0.278813 
688.587312  	0.276543 
690.516128  	0.274427 
692.444944  	0.273614 
694.373760  	0.272382 
696.302576  	0.270353 
698.231392  	0.267922 
700.160208  	0.265330 
702.089024  	0.262992 
704.017840  	0.261387 
705.946656  	0.258942 
707.875472  	0.256302 
709.804288  	0.254497 
711.733104  	0.253179 
713.661920  	0.251639 
715.590736  	0.250853 
717.519552  	0.250073 
719.448368  	0.250035 
721.377184  	0.251145 
723.306000  	0.252056 
725.234816  	0.252253 
727.163632  	0.251183 
729.092448  	0.248528 
731.021264  	0.245676 
732.950080  	0.243397 
734.878896  	0.240827 
736.807712  	0.238183 
738.736528  	0.236149 
740.665344  	0.234139 
742.594160  	0.232647 
744.522976  	0.231371 
746.451792  	0.230395 
748.380608  	0.229572 
750.309424  	0.228988 
752.238240  	0.228433 
754.167056  	0.228029 
756.095872  	0.227064 
758.024688  	0.225949 
759.953504  	0.225297 
761.882320  	0.225576 
763.811136  	0.226121 
765.739952  	0.225733 
767.668768  	0.224368 
769.597584  	0.223039 
771.526400  	0.222820 
773.455216  	0.224552 
775.384032  	0.227414 
777.312848  	0.231234 
779.241664  	0.234904 
781.170480  	0.235818 
783.099296  	0.232938 
785.028112  	0.227720 
786.956928  	0.222072 
788.885744  	0.217189 
790.814560  	0.213114 
792.743376  	0.210573 
794.672192  	0.209162 
796.601008  	0.208550 
798.529824  	0.206953 
800.458640  	0.203657 
802.387456  	0.200175 
804.316272  	0.198383 
806.245088  	0.197533 
808.173904  	0.197002 
810.102720  	0.197150 
812.031536  	0.197448 
813.960352  	0.197348 
815.889168  	0.197097 
817.817984  	0.197195 
819.746800  	0.196923 
821.675616  	0.196713 
823.604432  	0.196551 
825.533248  	0.195973 
827.462064  	0.195073 
829.390880  	0.193768 
831.319696  	0.192397 
833.248512  	0.190840 
835.177328  	0.188928 
837.106144  	0.186406 
839.034960  	0.183431 
840.963776  	0.180509 
842.892592  	0.178056 
844.821408  	0.175265 
846.750224  	0.172432 
848.679040  	0.170284 
850.607856  	0.168480 
852.536672  	0.166947 
854.465488  	0.165368 
856.394304  	0.164105 
858.323120  	0.162724 
860.251936  	0.161114 
862.180752  	0.159360 
864.109568  	0.157689 
866.038384  	0.156243 
867.967200  	0.155039 
869.896016  	0.153657 
871.824832  	0.152354 
873.753648  	0.151708 
875.682464  	0.151629 
877.611280  	0.152222 
879.540096  	0.152954 
881.468912  	0.153772 
883.397728  	0.154354 
885.326544  	0.154618 
887.255360  	0.154418 
889.184176  	0.153548 
891.112992  	0.152369 
893.041808  	0.150811 
894.970624  	0.148575 
896.899440  	0.145802 
898.828256  	0.142232 
900.757072  	0.138902 
902.685888  	0.136241 
904.614704  	0.134743 
906.543520  	0.134322 
908.472336  	0.135179 
910.401152  	0.137224 
912.329968  	0.139992 
914.258784  	0.142877 
916.187600  	0.145555 
918.116416  	0.147546 
920.045232  	0.148405 
921.974048  	0.147969 
923.902864  	0.147084 
925.831680  	0.145824 
927.760496  	0.144741 
929.689312  	0.143913 
931.618128  	0.143665 
933.546944  	0.143924 
935.475760  	0.144086 
937.404576  	0.144275 
939.333392  	0.145016 
941.262208  	0.146364 
943.191024  	0.148707 
945.119840  	0.152499 
947.048656  	0.157437 
948.977472  	0.163441 
950.906288  	0.170445 
952.835104  	0.177955 
954.763920  	0.185317 
956.692736  	0.192030 
958.621552  	0.197703 
960.550368  	0.201350 
962.479184  	0.202659 
964.408000  	0.201215 
966.336816  	0.197195 
968.265632  	0.190478 
970.194448  	0.182142 
972.123264  	0.172459 
974.052080  	0.162240 
975.980896  	0.152340 
977.909712  	0.143292 
979.838528  	0.135867 
981.767344  	0.129844 
983.696160  	0.125584 
985.624976  	0.123598 
987.553792  	0.123899 
989.482608  	0.126345 
991.411424  	0.130575 
993.340240  	0.136242 
995.269056  	0.143367 
997.197872  	0.150967 
999.126688  	0.158127 
1001.055504  	0.165478 
1002.984320  	0.172710 
1004.913136  	0.179563 
1006.841952  	0.185480 
1008.770768  	0.190868 
1010.699584  	0.195280 
1012.628400  	0.198145 
1014.557216  	0.200009 
1016.486032  	0.201464 
1018.414848  	0.202367 
1020.343664  	0.203257 
1022.272480  	0.203816 
1024.201296  	0.204368 
1026.130112  	0.205039 
1028.058928  	0.206014 
1029.987744  	0.207100 
1031.916560  	0.209340 
1033.845376  	0.212384 
1035.774192  	0.216046 
1037.703008  	0.220348 
1039.631824  	0.226281 
1041.560640  	0.233694 
1043.489456  	0.243602 
1045.418272  	0.255500 
1047.347088  	0.269206 
1049.275904  	0.283539 
1051.204720  	0.297611 
1053.133536  	0.309383 
1055.062352  	0.318407 
1056.991168  	0.323685 
1058.919984  	0.326434 
1060.848800  	0.326526 
1062.777616  	0.325751 
1064.706432  	0.322881 
1066.635248  	0.318735 
1068.564064  	0.312812 
1070.492880  	0.306770 
1072.421696  	0.300548 
1074.350512  	0.294768 
1076.279328  	0.289629 
1078.208144  	0.286306 
1080.136960  	0.283562 
1082.065776  	0.280992 
1083.994592  	0.277738 
1085.923408  	0.274515 
1087.852224  	0.269982 
1089.781040  	0.264894 
1091.709856  	0.258466 
1093.638672  	0.250784 
1095.567488  	0.241518 
1097.496304  	0.231856 
1099.425120  	0.221356 
1101.353936  	0.210741 
1103.282752  	0.200204 
1105.211568  	0.189611 
1107.140384  	0.178854 
1109.069200  	0.168125 
1110.998016  	0.158173 
1112.926832  	0.148923 
1114.855648  	0.139979 
1116.784464  	0.131394 
1118.713280  	0.123573 
1120.642096  	0.116512 
1122.570912  	0.109937 
1124.499728  	0.103781 
1126.428544  	0.098157 
1128.357360  	0.093062 
1130.286176  	0.088353 
1132.214992  	0.084144 
1134.143808  	0.080563 
1136.072624  	0.077255 
1138.001440  	0.074058 
1139.930256  	0.071148 
1141.859072  	0.068670 
1143.787888  	0.066064 
1145.716704  	0.063965 
1147.645520  	0.062318 
1149.574336  	0.061032 
1151.503152  	0.060118 
1153.431968  	0.059723 
1155.360784  	0.059732 
1157.289600  	0.060300 
1159.218416  	0.061213 
1161.147232  	0.062475 
1163.076048  	0.063746 
1165.004864  	0.065430 
1166.933680  	0.067191 
1168.862496  	0.069139 
1170.791312  	0.071287 
1172.720128  	0.073685 
1174.648944  	0.076003 
1176.577760  	0.078538 
1178.506576  	0.081175 
1180.435392  	0.083769 
1182.364208  	0.086185 
1184.293024  	0.088761 
1186.221840  	0.091509 
1188.150656  	0.094706 
1190.079472  	0.098584 
1192.008288  	0.103027 
1193.937104  	0.108056 
1195.865920  	0.114053 
1197.794736  	0.120586 
1199.723552  	0.127583 
1201.652368  	0.134931 
1203.581184  	0.142285 
1205.510000  	0.149595 
1207.438816  	0.157179 
1209.367632  	0.164414 
1211.296448  	0.170974 
1213.225264  	0.177170 
1215.154080  	0.182401 
1217.082896  	0.186814 
1219.011712  	0.190228 
1220.940528  	0.193399 
1222.869344  	0.195820 
1224.798160  	0.197562 
1226.726976  	0.198549 
1228.655792  	0.199221 
1230.584608  	0.199083 
1232.513424  	0.198216 
1234.442240  	0.195997 
1236.371056  	0.193191 
1238.299872  	0.189434 
1240.228688  	0.184929 
1242.157504  	0.179337 
1244.086320  	0.172968 
1246.015136  	0.165996 
1247.943952  	0.159114 
1249.872768  	0.152232 
1251.801584  	0.145344 
1253.730400  	0.138444 
1255.659216  	0.131768 
1257.588032  	0.125363 
1259.516848  	0.119189 
1261.445664  	0.113503 
1263.374480  	0.108304 
1265.303296  	0.103473 
1267.232112  	0.099415 
1269.160928  	0.096383 
1271.089744  	0.094270 
1273.018560  	0.093033 
1274.947376  	0.092462 
1276.876192  	0.092064 
1278.805008  	0.091140 
1280.733824  	0.089313 
1282.662640  	0.086587 
1284.591456  	0.083069 
1286.520272  	0.079462 
1288.449088  	0.076557 
1290.377904  	0.074420 
1292.306720  	0.072711 
1294.235536  	0.070624 
1296.164352  	0.067708 
1298.093168  	0.064177 
1300.021984  	0.060682 
1301.950800  	0.057382 
1303.879616  	0.054547 
1305.808432  	0.052251 
1307.737248  	0.050298 
1309.666064  	0.048555 
1311.594880  	0.047422 
1313.523696  	0.046753 
1315.452512  	0.046517 
1317.381328  	0.046542 
1319.310144  	0.047068 
1321.238960  	0.048001 
1323.167776  	0.048966 
1325.096592  	0.049645 
1327.025408  	0.049898 
1328.954224  	0.049526 
1330.883040  	0.048894 
1332.811856  	0.047966 
1334.740672  	0.047024 
1336.669488  	0.045853 
1338.598304  	0.044857 
1340.527120  	0.044426 
1342.455936  	0.044376 
1344.384752  	0.044516 
1346.313568  	0.045138 
1348.242384  	0.046204 
1350.171200  	0.047964 
1352.100016  	0.049977 
1354.028832  	0.052028 
1355.957648  	0.054264 
1357.886464  	0.056321 
1359.815280  	0.057918 
1361.744096  	0.059403 
1363.672912  	0.061442 
1365.601728  	0.063188 
1367.530544  	0.063996 
1369.459360  	0.064371 
1371.388176  	0.063874 
1373.316992  	0.062509 
1375.245808  	0.061206 
1377.174624  	0.059803 
1379.103440  	0.057901 
1381.032256  	0.056142 
1382.961072  	0.054734 
1384.889888  	0.053478 
1386.818704  	0.051938 
1388.747520  	0.050836 
1390.676336  	0.049723 
1392.605152  	0.048457 
1394.533968  	0.047418 
1396.462784  	0.047374 
1398.391600  	0.047605 
1400.320416  	0.048887 
1402.249232  	0.049791 
1404.178048  	0.050751 
1406.106864  	0.052312 
1408.035680  	0.054114 
1409.964496  	0.055778 
1411.893312  	0.057775 
1413.822128  	0.059407 
1415.750944  	0.060356 
1417.679760  	0.060283 
1419.608576  	0.060542 
1421.537392  	0.060505 
1423.466208  	0.059350 
1425.395024  	0.058026 
1427.323840  	0.056325 
1429.252656  	0.054143 
1431.181472  	0.052923 
1433.110288  	0.052541 
1435.039104  	0.051990 
1436.967920  	0.052698 
1438.896736  	0.054124 
1440.825552  	0.054590 
1442.754368  	0.055158 
1444.683184  	0.055150 
1446.612000  	0.054813 
1448.540816  	0.055089 
1450.469632  	0.055579 
1452.398448  	0.055456 
1454.327264  	0.054921 
1456.256080  	0.053613 
1458.184896  	0.054491 
1460.113712  	0.055967 
1462.042528  	0.056595 
1463.971344  	0.056566 
1465.900160  	0.058724 
1467.828976  	0.061121 
1469.757792  	0.063038 
1471.686608  	0.065126 
1473.615424  	0.070363 
1475.544240  	0.074608 
1477.473056  	0.078209 
1479.401872  	0.079952 
1481.330688  	0.080726 
1483.259504  	0.080887 
1485.188320  	0.080058 
1487.117136  	0.077906 
1489.045952  	0.075349 
1490.974768  	0.072999 
1492.903584  	0.070717 
1494.832400  	0.066767 
1496.761216  	0.062240 
1498.690032  	0.058775 
1500.618848  	0.056439 
1502.547664  	0.053861 
1504.476480  	0.050224 
1506.405296  	0.046014 
1508.334112  	0.046111 
1510.262928  	0.046288 
1512.191744  	0.045751 
1514.120560  	0.044637 
1516.049376  	0.043638 
1517.978192  	0.044321 
1519.907008  	0.044907 
1521.835824  	0.047355 
1523.764640  	0.051118 
1525.693456  	0.053794 
1527.622272  	0.056480 
1529.551088  	0.058113 
1531.479904  	0.057988 
1533.408720  	0.056790 
1535.337536  	0.056089 
1537.266352  	0.053271 
1539.195168  	0.048344 
1541.123984  	0.045905 
1543.052800  	0.046161 
1544.981616  	0.045792 
1546.910432  	0.045578 
1548.839248  	0.044478 
1550.768064  	0.044405 
1552.696880  	0.044227 
1554.625696  	0.044422 
1556.554512  	0.043362 
1558.483328  	0.042558 
1560.412144  	0.049672 
1562.340960  	0.053396 
1564.269776  	0.055487 
1566.198592  	0.059220 
1568.127408  	0.061846 
1570.056224  	0.067053 
1571.985040  	0.072215 
1573.913856  	0.074298 
1575.842672  	0.075411 
1577.771488  	0.078267 
1579.700304  	0.078858 
1581.629120  	0.078825 
1583.557936  	0.079019 
1585.486752  	0.080471 
1587.415568  	0.083015 
1589.344384  	0.087192 
1591.273200  	0.092030 
1593.202016  	0.097694 
1595.130832  	0.103339 
1597.059648  	0.109204 
1598.988464  	0.113540 
1600.917280  	0.116830 
1602.846096  	0.118646 
1604.774912  	0.119882 
1606.703728  	0.119410 
1608.632544  	0.118707 
1610.561360  	0.117902 
1612.490176  	0.117736 
1614.418992  	0.116887 
1616.347808  	0.117526 
1618.276624  	0.121177 
1620.205440  	0.125122 
1622.134256  	0.128802 
1624.063072  	0.136172 
1625.991888  	0.142789 
1627.920704  	0.150065 
1629.849520  	0.158704 
1631.778336  	0.166193 
1633.707152  	0.171104 
1635.635968  	0.177826 
1637.564784  	0.186207 
1639.493600  	0.191689 
1641.422416  	0.195508 
1643.351232  	0.197872 
1645.280048  	0.197977 
1647.208864  	0.198698 
1649.137680  	0.199865 
1651.066496  	0.198531 
1652.995312  	0.194415 
1654.924128  	0.195165 
1656.852944  	0.194558 
1658.781760  	0.192667 
1660.710576  	0.189785 
1662.639392  	0.187097 
1664.568208  	0.185724 
1666.497024  	0.183892 
1668.425840  	0.180686 
1670.354656  	0.178612 
1672.283472  	0.177815 
1674.212288  	0.176531 
1676.141104  	0.176105 
1678.069920  	0.176299 
1679.998736  	0.175597 
1681.927552  	0.174638 
1683.856368  	0.173278 
1685.785184  	0.175519 
1687.714000  	0.175368 
1689.642816  	0.174090 
1691.571632  	0.172373 
1693.500448  	0.169714 
1695.429264  	0.165096 
1697.358080  	0.161001 
1699.286896  	0.156825 
1701.215712  	0.152569 
1703.144528  	0.149297 
1705.073344  	0.144154 
1707.002160  	0.139073 
1708.930976  	0.134511 
1710.859792  	0.128878 
1712.788608  	0.122101 
1714.717424  	0.114631 
1716.646240  	0.106765 
1718.575056  	0.099517 
1720.503872  	0.093668 
1722.432688  	0.087516 
1724.361504  	0.080613 
1726.290320  	0.074513 
1728.219136  	0.067941 
1730.147952  	0.061756 
1732.076768  	0.055889 
1734.005584  	0.050470 
1735.934400  	0.046152 
1737.863216  	0.042411 
1739.792032  	0.037953 
1741.720848  	0.034952 
1743.649664  	0.031544 
1745.578480  	0.028621 
1747.507296  	0.025556 
1749.436112  	0.023580 
1751.364928  	0.022530 
1753.293744  	0.022184 
1755.222560  	0.020466 
1757.151376  	0.019484 
1759.080192  	0.018655 
1761.009008  	0.017931 
1762.937824  	0.017568 
1764.866640  	0.017293 
1766.795456  	0.015978 
1768.724272  	0.015428 
1770.653088  	0.013863 
1772.581904  	0.013615 
1774.510720  	0.014352 
1776.439536  	0.014837 
1778.368352  	0.014691 
1780.297168  	0.014599 
1782.225984  	0.014401 
1784.154800  	0.014108 
1786.083616  	0.014141 
1788.012432  	0.014014 
1789.941248  	0.012825 
1791.870064  	0.012416 
1793.798880  	0.012877 
1795.727696  	0.013127 
1797.656512  	0.012610 
1799.585328  	0.012350 
1801.514144  	0.012412 
1803.442960  	0.012559 
1805.371776  	0.012234 
1807.300592  	0.012095 
1809.229408  	0.011458 
1811.158224  	0.011500 
1813.087040  	0.011736 
1815.015856  	0.011701 
1816.944672  	0.011319 
1818.873488  	0.011706 
1820.802304  	0.011685 
1822.731120  	0.011490 
1824.659936  	0.011100 
1826.588752  	0.011580 
1828.517568  	0.011016 
1830.446384  	0.011445 
1832.375200  	0.012013 
1834.304016  	0.011939 
1836.232832  	0.011667 
1838.161648  	0.011857 
1840.090464  	0.011649 
1842.019280  	0.011029 
1843.948096  	0.010689 
1845.876912  	0.011574 
1847.805728  	0.011606 
1849.734544  	0.011853 
1851.663360  	0.011681 
1853.592176  	0.011709 
1855.520992  	0.011616 
1857.449808  	0.012207 
1859.378624  	0.012004 
1861.307440  	0.011722 
1863.236256  	0.011415 
1865.165072  	0.011306 
1867.093888  	0.010721 
1869.022704  	0.011088 
1870.951520  	0.011412 
1872.880336  	0.011758 
1874.809152  	0.011577 
1876.737968  	0.011519 
1878.666784  	0.011458 
1880.595600  	0.011778 
1882.524416  	0.011720 
1884.453232  	0.011602 
1886.382048  	0.011316 
1888.310864  	0.011260 
1890.239680  	0.011558 
1892.168496  	0.011918 
1894.097312  	0.011334 
1896.026128  	0.011702 
1897.954944  	0.011789 
1899.883760  	0.011764 
1901.812576  	0.011432 
1903.741392  	0.011858 
1905.670208  	0.011797 
1907.599024  	0.011699 
1909.527840  	0.011314 
1911.456656  	0.011416 
1913.385472  	0.011311 
1915.314288  	0.011807 
1917.243104  	0.011426 
1919.171920  	0.011714 
1921.100736  	0.011561 
1923.029552  	0.011985 
1924.958368  	0.011756 
1926.887184  	0.011821 
1928.816000  	0.011600 
1930.744816  	0.011346 
1932.673632  	0.010939 
1934.602448  	0.011690 
1936.531264  	0.012233 
1938.460080  	0.012302 
1940.388896  	0.011521 
1942.317712  	0.011594 
1944.246528  	0.011727 
1946.175344  	0.012139 
1948.104160  	0.010814 
1950.032976  	0.011015 
1951.961792  	0.011770 
1953.890608  	0.012114 
1955.819424  	0.011069 
1957.748240  	0.010982 
1959.677056  	0.011260 
1961.605872  	0.011080 
1963.534688  	0.009937 
1965.463504  	0.011507 
1967.392320  	0.012008 
1969.321136  	0.011619 
1971.249952  	0.011781 
1973.178768  	0.013524 
1975.107584  	0.012609 
1977.036400  	0.012431 
1978.965216  	0.013543 
1980.894032  	0.013335 
1982.822848  	0.011448 
1984.751664  	0.011731 
1986.680480  	0.011918 
1988.609296  	0.012235 
1990.538112  	0.011866 
1992.466928  	0.011640 
1994.395744  	0.011243 
1996.324560  	0.011786 
1998.253376  	0.010914 
2000.182192  	0.010798 
2002.111008  	0.011699 
2004.039824  	0.012390 
2005.968640  	0.011084 
2007.897456  	0.012090 
2009.826272  	0.011784 
2011.755088  	0.010901 
2013.683904  	0.011583 
2015.612720  	0.012517 
2017.541536  	0.011790 
2019.470352  	0.012103 
2021.399168  	0.011710 
2023.327984  	0.012710 
2025.256800  	0.012396 
2027.185616  	0.011894 
2029.114432  	0.011549 
2031.043248  	0.012985 
2032.972064  	0.013108 
2034.900880  	0.013831 
2036.829696  	0.013297 
2038.758512  	0.012440 
2040.687328  	0.011762 
2042.616144  	0.011516 
2044.544960  	0.011683 
2046.473776  	0.012774 
2048.402592  	0.012471 
2050.331408  	0.013275 
2052.260224  	0.012419 
2054.189040  	0.012039 
2056.117856  	0.011470 
2058.046672  	0.011213 
2059.975488  	0.010996 
2061.904304  	0.011480 
2063.833120  	0.012043 
2065.761936  	0.012008 
2067.690752  	0.011284 
2069.619568  	0.011194 
2071.548384  	0.010787 
2073.477200  	0.010857 
2075.406016  	0.011243 
2077.334832  	0.011736 
2079.263648  	0.011304 
2081.192464  	0.011638 
2083.121280  	0.012212 
2085.050096  	0.011917 
2086.978912  	0.011481 
2088.907728  	0.011561 
2090.836544  	0.010770 
2092.765360  	0.010477 
2094.694176  	0.010759 
2096.622992  	0.010929 
2098.551808  	0.010825 
2100.480624  	0.011404 
2102.409440  	0.011387 
2104.338256  	0.011506 
2106.267072  	0.011353 
2108.195888  	0.011544 
2110.124704  	0.012088 
2112.053520  	0.012529 
2113.982336  	0.012222 
2115.911152  	0.011813 
2117.839968  	0.010945 
2119.768784  	0.010495 
2121.697600  	0.010396 
2123.626416  	0.009937 
2125.555232  	0.010080 
2127.484048  	0.010905 
2129.412864  	0.010224 
2131.341680  	0.009278 
2133.270496  	0.009833 
2135.199312  	0.010680 
2137.128128  	0.010225 
2139.056944  	0.010687 
2140.985760  	0.010145 
2142.914576  	0.010299 
2144.843392  	0.010080 
2146.772208  	0.010566 
2148.701024  	0.011219 
2150.629840  	0.011603 
2152.558656  	0.010708 
2154.487472  	0.009917 
2156.416288  	0.008822 
2158.345104  	0.011023 
2160.273920  	0.013421 
2162.202736  	0.013741 
2164.131552  	0.012514 
2166.060368  	0.013370 
2167.989184  	0.012400 
2169.918000  	0.011730 
2171.846816  	0.011645 
2173.775632  	0.012226 
2175.704448  	0.012629 
2177.633264  	0.013310 
2179.562080  	0.012647 
2181.490896  	0.011983 
2183.419712  	0.011487 
2185.348528  	0.011541 
2187.277344  	0.011372 
2189.206160  	0.012142 
2191.134976  	0.012880 
2193.063792  	0.013881 
2194.992608  	0.014273 
2196.921424  	0.013792 
2198.850240  	0.013802 
2200.779056  	0.013542 
2202.707872  	0.012762 
2204.636688  	0.013017 
2206.565504  	0.013452 
2208.494320  	0.013699 
2210.423136  	0.012621 
2212.351952  	0.012764 
2214.280768  	0.013027 
2216.209584  	0.012777 
2218.138400  	0.012360 
2220.067216  	0.012684 
2221.996032  	0.012978 
2223.924848  	0.012634 
2225.853664  	0.012594 
2227.782480  	0.013078 
2229.711296  	0.012939 
2231.640112  	0.012683 
2233.568928  	0.012556 
2235.497744  	0.012851 
2237.426560  	0.012183 
2239.355376  	0.012189 
2241.284192  	0.012208 
2243.213008  	0.012206 
2245.141824  	0.012360 
2247.070640  	0.012063 
2248.999456  	0.011626 
2250.928272  	0.012067 
2252.857088  	0.011694 
2254.785904  	0.011525 
2256.714720  	0.012135 
2258.643536  	0.012550 
2260.572352  	0.011850 
2262.501168  	0.011978 
2264.429984  	0.012330 
2266.358800  	0.012593 
2268.287616  	0.012527 
2270.216432  	0.012574 
2272.145248  	0.012271 
2274.074064  	0.012443 
2276.002880  	0.012540 
2277.931696  	0.012900 
2279.860512  	0.013144 
2281.789328  	0.013415 
2283.718144  	0.013326 
2285.646960  	0.013504 
2287.575776  	0.013574 
2289.504592  	0.013238 
2291.433408  	0.012766 
2293.362224  	0.012695 
2295.291040  	0.012721 
2297.219856  	0.012979 
2299.148672  	0.012794 
2301.077488  	0.012712 
2303.006304  	0.012804 
2304.935120  	0.012636 
2306.863936  	0.012425 
2308.792752  	0.012462 
2310.721568  	0.012407 
2312.650384  	0.012407 
2314.579200  	0.012366 
2316.508016  	0.012140 
2318.436832  	0.011446 
2320.365648  	0.011178 
2322.294464  	0.011319 
2324.223280  	0.010991 
2326.152096  	0.009461 
2328.080912  	0.008121 
2330.009728  	0.007660 
2331.938544  	0.007809 
2333.867360  	0.007272 
2335.796176  	0.006693 
2337.724992  	0.006232 
2339.653808  	0.006037 
2341.582624  	0.006294 
2343.511440  	0.007547 
2345.440256  	0.009004 
2347.369072  	0.009959 
2349.297888  	0.009334 
2351.226704  	0.007737 
2353.155520  	0.006443 
2355.084336  	0.005368 
2357.013152  	0.004368 
2358.941968  	0.004006 
2360.870784  	0.003965 
2362.799600  	0.004493 
2364.728416  	0.004980 
2366.657232  	0.005611 
2368.586048  	0.006614 
2370.514864  	0.008188 
2372.443680  	0.009363 
2374.372496  	0.010537 
2376.301312  	0.011500 
2378.230128  	0.012306 
2380.158944  	0.012717 
2382.087760  	0.013028 
2384.016576  	0.013363 
2385.945392  	0.013510 
2387.874208  	0.013248 
2389.803024  	0.013083 
2391.731840  	0.012839 
2393.660656  	0.012897 
2395.589472  	0.013146 
2397.518288  	0.013421 
2399.447104  	0.013440 
2401.375920  	0.013178 
2403.304736  	0.013139 
2405.233552  	0.013305 
2407.162368  	0.013573 
2409.091184  	0.013682 
2411.020000  	0.013775 
2412.948816  	0.014017 
2414.877632  	0.014019 
2416.806448  	0.014132 
2418.735264  	0.014308 
2420.664080  	0.014228 
2422.592896  	0.013991 
2424.521712  	0.014035 
2426.450528  	0.014125 
2428.379344  	0.014014 
2430.308160  	0.014106 
2432.236976  	0.014356 
2434.165792  	0.014479 
2436.094608  	0.014846 
2438.023424  	0.015170 
2439.952240  	0.015215 
2441.881056  	0.015155 
2443.809872  	0.015209 
2445.738688  	0.015159 
2447.667504  	0.015228 
2449.596320  	0.015243 
2451.525136  	0.015371 
2453.453952  	0.015369 
2455.382768  	0.015432 
2457.311584  	0.015585 
2459.240400  	0.015604 
2461.169216  	0.015360 
2463.098032  	0.015354 
2465.026848  	0.015496 
2466.955664  	0.015665 
2468.884480  	0.015695 
2470.813296  	0.015772 
2472.742112  	0.015595 
2474.670928  	0.015528 
2476.599744  	0.015547 
2478.528560  	0.015706 
2480.457376  	0.015833 
2482.386192  	0.015769 
2484.315008  	0.015739 
2486.243824  	0.015868 
2488.172640  	0.015868 
2490.101456  	0.015982 
2492.030272  	0.016356 
2493.959088  	0.016246 
2495.887904  	0.015968 
2497.816720  	0.016184 
2499.745536  	0.016460 
2501.674352  	0.016660 
2503.603168  	0.016811 
2505.531984  	0.016893 
2507.460800  	0.017005 
2509.389616  	0.017090 
2511.318432  	0.016718 
2513.247248  	0.016580 
2515.176064  	0.016895 
2517.104880  	0.017277 
2519.033696  	0.017331 
2520.962512  	0.017403 
2522.891328  	0.017711 
2524.820144  	0.017855 
2526.748960  	0.017728 
2528.677776  	0.017758 
2530.606592  	0.017698 
2532.535408  	0.017555 
2534.464224  	0.017820 
2536.393040  	0.018083 
2538.321856  	0.017772 
2540.250672  	0.017554 
2542.179488  	0.017803 
2544.108304  	0.018166 
2546.037120  	0.018103 
2547.965936  	0.018458 
2549.894752  	0.018801 
2551.823568  	0.018656 
2553.752384  	0.018512 
2555.681200  	0.018709 
2557.610016  	0.018925 
2559.538832  	0.019020 
2561.467648  	0.018993 
2563.396464  	0.019393 
2565.325280  	0.019731 
2567.254096  	0.019711 
2569.182912  	0.019581 
2571.111728  	0.019459 
2573.040544  	0.019338 
2574.969360  	0.019301 
2576.898176  	0.019565 
2578.826992  	0.020053 
2580.755808  	0.020074 
2582.684624  	0.020041 
2584.613440  	0.020085 
2586.542256  	0.020219 
2588.471072  	0.020483 
2590.399888  	0.020659 
2592.328704  	0.020604 
2594.257520  	0.020715 
2596.186336  	0.021026 
2598.115152  	0.021115 
2600.043968  	0.020958 
2601.972784  	0.020987 
2603.901600  	0.021155 
2605.830416  	0.021340 
2607.759232  	0.021277 
2609.688048  	0.021410 
2611.616864  	0.021742 
2613.545680  	0.021841 
2615.474496  	0.021691 
2617.403312  	0.021676 
2619.332128  	0.021932 
2621.260944  	0.022098 
2623.189760  	0.022132 
2625.118576  	0.022320 
2627.047392  	0.022414 
2628.976208  	0.022626 
2630.905024  	0.022798 
2632.833840  	0.022995 
2634.762656  	0.023205 
2636.691472  	0.023306 
2638.620288  	0.023304 
2640.549104  	0.023342 
2642.477920  	0.023419 
2644.406736  	0.023542 
2646.335552  	0.023780 
2648.264368  	0.023967 
2650.193184  	0.024063 
2652.122000  	0.024214 
2654.050816  	0.024419 
2655.979632  	0.024479 
2657.908448  	0.024513 
2659.837264  	0.024585 
2661.766080  	0.024610 
2663.694896  	0.024640 
2665.623712  	0.024604 
2667.552528  	0.024610 
2669.481344  	0.024800 
2671.410160  	0.025048 
2673.338976  	0.025279 
2675.267792  	0.025437 
2677.196608  	0.025500 
2679.125424  	0.025641 
2681.054240  	0.025730 
2682.983056  	0.025814 
2684.911872  	0.025941 
2686.840688  	0.026091 
2688.769504  	0.026210 
2690.698320  	0.026328 
2692.627136  	0.026547 
2694.555952  	0.026657 
2696.484768  	0.026625 
2698.413584  	0.026758 
2700.342400  	0.026887 
2702.271216  	0.027060 
2704.200032  	0.027323 
2706.128848  	0.027532 
2708.057664  	0.027642 
2709.986480  	0.027674 
2711.915296  	0.027722 
2713.844112  	0.027870 
2715.772928  	0.028085 
2717.701744  	0.028312 
2719.630560  	0.028380 
2721.559376  	0.028423 
2723.488192  	0.028589 
2725.417008  	0.028897 
2727.345824  	0.029112 
2729.274640  	0.029106 
2731.203456  	0.029123 
2733.132272  	0.029348 
2735.061088  	0.029509 
2736.989904  	0.029598 
2738.918720  	0.029701 
2740.847536  	0.029752 
2742.776352  	0.029929 
2744.705168  	0.030131 
2746.633984  	0.030206 
2748.562800  	0.030375 
2750.491616  	0.030559 
2752.420432  	0.030603 
2754.349248  	0.030575 
2756.278064  	0.030625 
2758.206880  	0.030699 
2760.135696  	0.030878 
2762.064512  	0.030943 
2763.993328  	0.030970 
2765.922144  	0.031114 
2767.850960  	0.031284 
2769.779776  	0.031356 
2771.708592  	0.031335 
2773.637408  	0.031345 
2775.566224  	0.031480 
2777.495040  	0.031579 
2779.423856  	0.031688 
2781.352672  	0.031848 
2783.281488  	0.031968 
2785.210304  	0.032009 
2787.139120  	0.032158 
2789.067936  	0.032274 
2790.996752  	0.032344 
2792.925568  	0.032555 
2794.854384  	0.032728 
2796.783200  	0.032734 
2798.712016  	0.032605 
2800.640832  	0.032661 
2802.569648  	0.032915 
2804.498464  	0.033098 
2806.427280  	0.033171 
2808.356096  	0.033260 
2810.284912  	0.033422 
2812.213728  	0.033488 
2814.142544  	0.033574 
2816.071360  	0.033732 
2818.000176  	0.033824 
2819.928992  	0.033814 
2821.857808  	0.033898 
2823.786624  	0.033918 
2825.715440  	0.033940 
2827.644256  	0.033861 
2829.573072  	0.033897 
2831.501888  	0.033876 
2833.430704  	0.033805 
2835.359520  	0.033813 
2837.288336  	0.033761 
2839.217152  	0.033756 
2841.145968  	0.033765 
2843.074784  	0.033790 
2845.003600  	0.034002 
2846.932416  	0.034317 
2848.861232  	0.034544 
2850.790048  	0.034558 
2852.718864  	0.034495 
2854.647680  	0.034553 
2856.576496  	0.034702 
2858.505312  	0.034806 
2860.434128  	0.034783 
2862.362944  	0.034729 
2864.291760  	0.034804 
2866.220576  	0.035007 
2868.149392  	0.035452 
2870.078208  	0.035956 
2872.007024  	0.036418 
2873.935840  	0.036825 
2875.864656  	0.037348 
2877.793472  	0.038055 
2879.722288  	0.038581 
2881.651104  	0.038849 
2883.579920  	0.039172 
2885.508736  	0.039571 
2887.437552  	0.039940 
2889.366368  	0.040128 
2891.295184  	0.040148 
2893.224000  	0.040238 
2895.152816  	0.040396 
2897.081632  	0.040239 
2899.010448  	0.040170 
2900.939264  	0.040382 
2902.868080  	0.040635 
2904.796896  	0.040893 
2906.725712  	0.041157 
2908.654528  	0.041276 
2910.583344  	0.041668 
2912.512160  	0.042311 
2914.440976  	0.042981 
2916.369792  	0.043580 
2918.298608  	0.044039 
2920.227424  	0.044298 
2922.156240  	0.044799 
2924.085056  	0.045530 
2926.013872  	0.046201 
2927.942688  	0.046853 
2929.871504  	0.047566 
2931.800320  	0.048142 
2933.729136  	0.048597 
2935.657952  	0.049075 
2937.586768  	0.049495 
2939.515584  	0.049672 
2941.444400  	0.049923 
2943.373216  	0.050195 
2945.302032  	0.050322 
2947.230848  	0.050386 
2949.159664  	0.050462 
2951.088480  	0.050335 
2953.017296  	0.050299 
2954.946112  	0.050169 
2956.874928  	0.049966 
2958.803744  	0.049764 
2960.732560  	0.049638 
2962.661376  	0.049523 
2964.590192  	0.049282 
2966.519008  	0.049197 
2968.447824  	0.048996 
2970.376640  	0.048762 
2972.305456  	0.048369 
2974.234272  	0.047992 
2976.163088  	0.047842 
2978.091904  	0.047821 
2980.020720  	0.047583 
2981.949536  	0.047310 
2983.878352  	0.047113 
2985.807168  	0.047118 
2987.735984  	0.047229 
2989.664800  	0.047189 
2991.593616  	0.047242 
2993.522432  	0.047237 
2995.451248  	0.047247 
2997.380064  	0.047365 
2999.308880  	0.047444 
3001.237696  	0.047627 
3003.166512  	0.047695 
3005.095328  	0.047727 
3007.024144  	0.047973 
3008.952960  	0.048198 
3010.881776  	0.048442 
3012.810592  	0.048686 
3014.739408  	0.048706 
3016.668224  	0.048974 
3018.597040  	0.049230 
3020.525856  	0.049313 
3022.454672  	0.049434 
3024.383488  	0.049625 
3026.312304  	0.049864 
3028.241120  	0.050051 
3030.169936  	0.050127 
3032.098752  	0.050541 
3034.027568  	0.050724 
3035.956384  	0.050673 
3037.885200  	0.050792 
3039.814016  	0.051181 
3041.742832  	0.051681 
3043.671648  	0.051935 
3045.600464  	0.052185 
3047.529280  	0.052480 
3049.458096  	0.052745 
3051.386912  	0.053007 
3053.315728  	0.053382 
3055.244544  	0.053704 
3057.173360  	0.054245 
3059.102176  	0.054713 
3061.030992  	0.054873 
3062.959808  	0.055202 
3064.888624  	0.055744 
3066.817440  	0.056299 
3068.746256  	0.056633 
3070.675072  	0.056809 
3072.603888  	0.057336 
3074.532704  	0.057998 
3076.461520  	0.058537 
3078.390336  	0.058772 
3080.319152  	0.059271 
3082.247968  	0.059986 
3084.176784  	0.060477 
3086.105600  	0.060643 
3088.034416  	0.060881 
3089.963232  	0.061360 
3091.892048  	0.061783 
3093.820864  	0.062100 
3095.749680  	0.062467 
3097.678496  	0.062777 
3099.607312  	0.063301 
3101.536128  	0.063992 
3103.464944  	0.064456 
3105.393760  	0.064699 
3107.322576  	0.064976 
3109.251392  	0.065364 
3111.180208  	0.065815 
3113.109024  	0.066098 
3115.037840  	0.066245 
3116.966656  	0.066572 
3118.895472  	0.067106 
3120.824288  	0.067398 
3122.753104  	0.067648 
3124.681920  	0.068000 
3126.610736  	0.068367 
3128.539552  	0.068533 
3130.468368  	0.068626 
3132.397184  	0.068965 
3134.326000  	0.069350 
3136.254816  	0.069598 
3138.183632  	0.069774 
3140.112448  	0.069911 
3142.041264  	0.070322 
3143.970080  	0.070669 
3145.898896  	0.070884 
3147.827712  	0.071096 
3149.756528  	0.071479 
3151.685344  	0.072014 
3153.614160  	0.072394 
3155.542976  	0.072439 
3157.471792  	0.072676 
3159.400608  	0.073296 
3161.329424  	0.073768 
3163.258240  	0.074054 
3165.187056  	0.074430 
3167.115872  	0.074659 
3169.044688  	0.074861 
3170.973504  	0.074933 
3172.902320  	0.075044 
3174.831136  	0.075323 
3176.759952  	0.075633 
3178.688768  	0.075957 
3180.617584  	0.076227 
3182.546400  	0.076191 
3184.475216  	0.076376 
3186.404032  	0.076476 
3188.332848  	0.076553 
3190.261664  	0.076840 
3192.190480  	0.077011 
3194.119296  	0.076643 
3196.048112  	0.076447 
3197.976928  	0.076727 
3199.905744  	0.076880 
3201.834560  	0.076810 
3203.763376  	0.076774 
3205.692192  	0.076657 
3207.621008  	0.076474 
3209.549824  	0.076287 
3211.478640  	0.076056 
3213.407456  	0.075848 
3215.336272  	0.076041 
3217.265088  	0.075939 
3219.193904  	0.075410 
3221.122720  	0.074991 
3223.051536  	0.074896 
3224.980352  	0.074720 
3226.909168  	0.074327 
3228.837984  	0.073957 
3230.766800  	0.073947 
3232.695616  	0.074082 
3234.624432  	0.074132 
3236.553248  	0.073961 
3238.482064  	0.073693 
3240.410880  	0.073562 
3242.339696  	0.073460 
3244.268512  	0.073440 
3246.197328  	0.073565 
3248.126144  	0.073579 
3250.054960  	0.073529 
3251.983776  	0.073496 
3253.912592  	0.073544 
3255.841408  	0.073720 
3257.770224  	0.073771 
3259.699040  	0.073774 
3261.627856  	0.073899 
3263.556672  	0.074025 
3265.485488  	0.074032 
3267.414304  	0.074220 
3269.343120  	0.074416 
3271.271936  	0.074526 
3273.200752  	0.074685 
3275.129568  	0.074770 
3277.058384  	0.074787 
3278.987200  	0.074927 
3280.916016  	0.074979 
3282.844832  	0.075212 
3284.773648  	0.075519 
3286.702464  	0.075595 
3288.631280  	0.075771 
3290.560096  	0.075943 
3292.488912  	0.076162 
3294.417728  	0.076243 
3296.346544  	0.076376 
3298.275360  	0.076549 
3300.204176  	0.076866 
3302.132992  	0.077100 
3304.061808  	0.077379 
3305.990624  	0.077732 
3307.919440  	0.077946 
3309.848256  	0.078090 
3311.777072  	0.078158 
3313.705888  	0.078244 
3315.634704  	0.078639 
3317.563520  	0.078975 
3319.492336  	0.079160 
3321.421152  	0.079365 
3323.349968  	0.079446 
3325.278784  	0.079666 
3327.207600  	0.079758 
3329.136416  	0.079628 
3331.065232  	0.079520 
3332.994048  	0.079792 
3334.922864  	0.079745 
3336.851680  	0.079640 
3338.780496  	0.079727 
3340.709312  	0.079514 
3342.638128  	0.079327 
3344.566944  	0.079184 
3346.495760  	0.078975 
3348.424576  	0.078854 
3350.353392  	0.078578 
3352.282208  	0.078113 
3354.211024  	0.077904 
3356.139840  	0.077703 
3358.068656  	0.077414 
3359.997472  	0.077298 
3361.926288  	0.077137 
3363.855104  	0.076500 
3365.783920  	0.076127 
3367.712736  	0.076017 
3369.641552  	0.075533 
3371.570368  	0.075046 
3373.499184  	0.074684 
3375.428000  	0.074254 
3377.356816  	0.074029 
3379.285632  	0.073849 
3381.214448  	0.073609 
3383.143264  	0.073224 
3385.072080  	0.072980 
3387.000896  	0.072659 
3388.929712  	0.072354 
3390.858528  	0.071893 
3392.787344  	0.071363 
3394.716160  	0.070887 
3396.644976  	0.070658 
3398.573792  	0.070455 
3400.502608  	0.069884 
3402.431424  	0.069348 
3404.360240  	0.069139 
3406.289056  	0.068901 
3408.217872  	0.068500 
3410.146688  	0.068068 
3412.075504  	0.067909 
3414.004320  	0.067813 
3415.933136  	0.067278 
3417.861952  	0.066619 
3419.790768  	0.066272 
3421.719584  	0.065934 
3423.648400  	0.065347 
3425.577216  	0.065095 
3427.506032  	0.064748 
3429.434848  	0.064084 
3431.363664  	0.063749 
3433.292480  	0.063537 
3435.221296  	0.063396 
3437.150112  	0.063190 
3439.078928  	0.062688 
3441.007744  	0.062035 
3442.936560  	0.061751 
3444.865376  	0.061252 
3446.794192  	0.060501 
3448.723008  	0.060305 
3450.651824  	0.059979 
3452.580640  	0.059298 
3454.509456  	0.058639 
3456.438272  	0.058106 
3458.367088  	0.057787 
3460.295904  	0.057315 
3462.224720  	0.056822 
3464.153536  	0.056386 
3466.082352  	0.056085 
3468.011168  	0.055678 
3469.939984  	0.055069 
3471.868800  	0.054454 
3473.797616  	0.053899 
3475.726432  	0.053284 
3477.655248  	0.052610 
3479.584064  	0.052028 
3481.512880  	0.051542 
3483.441696  	0.051032 
3485.370512  	0.050192 
3487.299328  	0.049596 
3489.228144  	0.049341 
3491.156960  	0.048761 
3493.085776  	0.048144 
3495.014592  	0.047518 
3496.943408  	0.047063 
3498.872224  	0.046440 
3500.801040  	0.045858 
3502.729856  	0.045405 
3504.658672  	0.045008 
3506.587488  	0.044370 
3508.516304  	0.043865 
3510.445120  	0.043926 
3512.373936  	0.043666 
3514.302752  	0.042962 
3516.231568  	0.042306 
3518.160384  	0.041737 
3520.089200  	0.041347 
3522.018016  	0.040820 
3523.946832  	0.040548 
3525.875648  	0.040179 
3527.804464  	0.039731 
3529.733280  	0.039599 
3531.662096  	0.039249 
3533.590912  	0.038674 
3535.519728  	0.038248 
3537.448544  	0.038091 
3539.377360  	0.037802 
3541.306176  	0.037189 
3543.234992  	0.036254 
3545.163808  	0.036002 
3547.092624  	0.035899 
3549.021440  	0.035210 
3550.950256  	0.034614 
3552.879072  	0.034722 
3554.807888  	0.034792 
3556.736704  	0.034185 
3558.665520  	0.033510 
3560.594336  	0.033026 
3562.523152  	0.032450 
3564.451968  	0.031361 
3566.380784  	0.030541 
3568.309600  	0.031258 
3570.238416  	0.031264 
3572.167232  	0.030583 
3574.096048  	0.029997 
3576.024864  	0.029487 
3577.953680  	0.029199 
3579.882496  	0.028889 
3581.811312  	0.028460 
3583.740128  	0.027359 
3585.668944  	0.025896 
3587.597760  	0.026098 
3589.526576  	0.026699 
3591.455392  	0.025501 
3593.384208  	0.024554 
3595.313024  	0.024224 
3597.241840  	0.023931 
3599.170656  	0.023279 
3601.099472  	0.022977 
3603.028288  	0.022663 
3604.957104  	0.021658 
3606.885920  	0.020545 
3608.814736  	0.020637 
3610.743552  	0.020103 
3612.672368  	0.019106 
3614.601184  	0.019074 
3616.530000  	0.017926 
3618.458816  	0.017011 
3620.387632  	0.017777 
3622.316448  	0.017705 
3624.245264  	0.016659 
3626.174080  	0.014592 
3628.102896  	0.013234 
3630.031712  	0.015397 
3631.960528  	0.015092 
3633.889344  	0.014262 
3635.818160  	0.013700 
3637.746976  	0.013211 
3639.675792  	0.013147 
3641.604608  	0.012615 
3643.533424  	0.011784 
3645.462240  	0.009749 
3647.391056  	0.007935 
3649.319872  	0.008173 
3651.248688  	0.010333 
3653.177504  	0.010222 
3655.106320  	0.008733 
3657.035136  	0.009437 
3658.963952  	0.009463 
3660.892768  	0.008797 
3662.821584  	0.008380 
3664.750400  	0.007833 
3666.679216  	0.006484 
3668.608032  	0.004826 
3670.536848  	0.005731 
3672.465664  	0.005702 
3674.394480  	0.003611 
3676.323296  	0.006043 
3678.252112  	0.006783 
3680.180928  	0.006588 
3682.109744  	0.006513 
3684.038560  	0.005997 
3685.967376  	0.004468 
3687.896192  	0.003008 
3689.825008  	0.003823 
3691.753824  	0.005213 
3693.682640  	0.005743 
3695.611456  	0.005297 
3697.540272  	0.005203 
3699.469088  	0.004685 
3701.397904  	0.004943 
3703.326720  	0.005744 
3705.255536  	0.005299 
3707.184352  	0.003773 
3709.113168  	0.002532 
3711.041984  	0.002942 
3712.970800  	0.004908 
3714.899616  	0.005315 
3716.828432  	0.004779 
3718.757248  	0.004190 
3720.686064  	0.003726 
3722.614880  	0.004076 
3724.543696  	0.004213 
3726.472512  	0.004547 
3728.401328  	0.004544 
3730.330144  	0.002796 
3732.258960  	0.001855 
3734.187776  	0.002026 
3736.116592  	0.003833 
3738.045408  	0.004489 
3739.974224  	0.003506 
3741.903040  	0.002120 
3743.831856  	0.002314 
3745.760672  	0.004587 
3747.689488  	0.002267 
3749.618304  	0.001352 
3751.547120  	0.003044 
3753.475936  	0.005417 
3755.404752  	0.004762 
3757.333568  	0.003795 
3759.262384  	0.004190 
3761.191200  	0.005390 
3763.120016  	0.004840 
3765.048832  	0.004350 
3766.977648  	0.004350 
3768.906464  	0.003849 
3770.835280  	0.004927 
3772.764096  	0.005431 
3774.692912  	0.005217 
3776.621728  	0.004495 
3778.550544  	0.003953 
3780.479360  	0.005043 
3782.408176  	0.005014 
3784.336992  	0.004722 
3786.265808  	0.005210 
3788.194624  	0.005441 
3790.123440  	0.005196 
3792.052256  	0.004943 
3793.981072  	0.004352 
3795.909888  	0.003854 
3797.838704  	0.003767 
3799.767520  	0.002428 
3801.696336  	0.003480 
3803.625152  	0.004768 
3805.553968  	0.003519 
3807.482784  	0.004725 
3809.411600  	0.005636 
3811.340416  	0.005253 
3813.269232  	0.004156 
3815.198048  	0.003208 
3817.126864  	0.004214 
3819.055680  	0.002594 
3820.984496  	0.002956 
3822.913312  	0.005406 
3824.842128  	0.004612 
3826.770944  	0.004462 
3828.699760  	0.004540 
3830.628576  	0.003710 
3832.557392  	0.003564 
3834.486208  	0.003065 
3836.415024  	0.002531 
3838.343840  	0.003247 
3840.272656  	0.003994 
3842.201472  	0.004032 
3844.130288  	0.004413 
3846.059104  	0.005012 
3847.987920  	0.004445 
3849.916736  	0.002975 
3851.845552  	0.000939 
3853.774368  	0.003746 
3855.703184  	0.005839 
3857.632000  	0.004827 
3859.560816  	0.004171 
3861.489632  	0.003753 
3863.418448  	0.003818 
3865.347264  	0.004608 
3867.276080  	0.003929 
3869.204896  	0.003135 
3871.133712  	0.004739 
3873.062528  	0.004112 
3874.991344  	0.005145 
3876.920160  	0.005077 
3878.848976  	0.003816 
3880.777792  	0.004434 
3882.706608  	0.004792 
3884.635424  	0.004113 
3886.564240  	0.005500 
3888.493056  	0.004964 
3890.421872  	0.004216 
3892.350688  	0.005317 
3894.279504  	0.005578 
3896.208320  	0.004755 
3898.137136  	0.003880 
3900.065952  	0.003882 
3901.994768  	0.004049 
3903.923584  	0.004772 
3905.852400  	0.005971 
3907.781216  	0.005975 
3909.710032  	0.005643 
3911.638848  	0.005611 
3913.567664  	0.005382 
3915.496480  	0.004925 
3917.425296  	0.005457 
3919.354112  	0.005683 
3921.282928  	0.005612 
3923.211744  	0.005161 
3925.140560  	0.005463 
3927.069376  	0.005457 
3928.998192  	0.004996 
3930.927008  	0.005204 
3932.855824  	0.005962 
3934.784640  	0.006189 
3936.713456  	0.005895 
3938.642272  	0.005718 
3940.571088  	0.005297 
3942.499904  	0.005460 
3944.428720  	0.005941 
3946.357536  	0.005667 
3948.286352  	0.005602 
3950.215168  	0.005694 
3952.143984  	0.005681 
3954.072800  	0.005560 
3956.001616  	0.005405 
3957.930432  	0.005604 
3959.859248  	0.005790 
3961.788064  	0.005726 
3963.716880  	0.005870 
3965.645696  	0.005948 
3967.574512  	0.006027 
3969.503328  	0.005975 
3971.432144  	0.005718 
3973.360960  	0.005428 
3975.289776  	0.005443 
3977.218592  	0.005848 
3979.147408  	0.006120 
3981.076224  	0.005965 
3983.005040  	0.005889 
3984.933856  	0.005928 
3986.862672  	0.006027 
3988.791488  	0.005898 
3990.720304  	0.005824 
3992.649120  	0.006001 
3994.577936  	0.005991 
3996.506752  	0.005840 
3998.435568  	0.005876 
4000.364384  	0.005927 