##TITLE=No Description
##DATA TYPE=INFRARED SPECTRUM
##XUNITS=1/CM
##YUNITS=Abs
399.264912  	0.578296 
401.193728  	0.582681 
403.122544  	0.587899 
405.051360  	0.577867 
406.980176  	0.575138 
408.908992  	0.557651 
410.837808  	0.551401 
412.766624  	0.552332 
414.695440  	0.556772 
416.624256  	0.557131 
418.553072  	0.564198 
420.481888  	0.554305 
422.410704  	0.557918 
424.339520  	0.545844 
426.268336  	0.541816 
428.197152  	0.541488 
430.125968  	0.539369 
432.054784  	0.532607 
433.983600  	0.533533 
435.912416  	0.526170 
437.841232  	0.525577 
439.770048  	0.526445 
441.698864  	0.526016 
443.627680  	0.518307 
445.556496  	0.511748 
447.485312  	0.510390 
449.414128  	0.516343 
451.342944  	0.514462 
453.271760  	0.515239 
455.200576  	0.513790 
457.129392  	0.514685 
459.058208  	0.514610 
460.987024  	0.512565 
462.915840  	0.509451 
464.844656  	0.514969 
466.773472  	0.514559 
468.702288  	0.515428 
470.631104  	0.512636 
472.559920  	0.513012 
474.488736  	0.511158 
476.417552  	0.511938 
478.346368  	0.512480 
480.275184  	0.511254 
482.204000  	0.505676 
484.132816  	0.510963 
486.061632  	0.508652 
487.990448  	0.506353 
489.919264  	0.504598 
491.848080  	0.502726 
493.776896  	0.499494 
495.705712  	0.501468 
497.634528  	0.499180 
499.563344  	0.495225 
501.492160  	0.493268 
503.420976  	0.494622 
505.349792  	0.494317 
507.278608  	0.495678 
509.207424  	0.495063 
511.136240  	0.497033 
513.065056  	0.499416 
514.993872  	0.500573 
516.922688  	0.496258 
518.851504  	0.497521 
520.780320  	0.498120 
522.709136  	0.499315 
524.637952  	0.495870 
526.566768  	0.495384 
528.495584  	0.495298 
530.424400  	0.491610 
532.353216  	0.483973 
534.282032  	0.480637 
536.210848  	0.476300 
538.139664  	0.472552 
540.068480  	0.468911 
541.997296  	0.466628 
543.926112  	0.461536 
545.854928  	0.457798 
547.783744  	0.455071 
549.712560  	0.453317 
551.641376  	0.448504 
553.570192  	0.444657 
555.499008  	0.440648 
557.427824  	0.437980 
559.356640  	0.434947 
561.285456  	0.431192 
563.214272  	0.426426 
565.143088  	0.422398 
567.071904  	0.418481 
569.000720  	0.415118 
570.929536  	0.411179 
572.858352  	0.408551 
574.787168  	0.405161 
576.715984  	0.401239 
578.644800  	0.397821 
580.573616  	0.393921 
582.502432  	0.389210 
584.431248  	0.386587 
586.360064  	0.384326 
588.288880  	0.382425 
590.217696  	0.380236 
592.146512  	0.378788 
594.075328  	0.376497 
596.004144  	0.373641 
597.932960  	0.371150 
599.861776  	0.370531 
601.790592  	0.370209 
603.719408  	0.369194 
605.648224  	0.367319 
607.577040  	0.366509 
609.505856  	0.365575 
611.434672  	0.365097 
613.363488  	0.363288 
615.292304  	0.360801 
617.221120  	0.357782 
619.149936  	0.356267 
621.078752  	0.354488 
623.007568  	0.352356 
624.936384  	0.350365 
626.865200  	0.349591 
628.794016  	0.348798 
630.722832  	0.347873 
632.651648  	0.346812 
634.580464  	0.346203 
636.509280  	0.346591 
638.438096  	0.346359 
640.366912  	0.344994 
642.295728  	0.343834 
644.224544  	0.341386 
646.153360  	0.338319 
648.082176  	0.334770 
650.010992  	0.332421 
651.939808  	0.329358 
653.868624  	0.325645 
655.797440  	0.321113 
657.726256  	0.317523 
659.655072  	0.313736 
661.583888  	0.309877 
663.512704  	0.306388 
665.441520  	0.303892 
667.370336  	0.299591 
669.299152  	0.294040 
671.227968  	0.293029 
673.156784  	0.290910 
675.085600  	0.288085 
677.014416  	0.286145 
678.943232  	0.284230 
680.872048  	0.282147 
682.800864  	0.280616 
684.729680  	0.279753 
686.658496  	0.277830 
688.587312  	0.275576 
690.516128  	0.273687 
692.444944  	0.272671 
694.373760  	0.271392 
696.302576  	0.270128 
698.231392  	0.267800 
700.160208  	0.264887 
702.089024  	0.262194 
704.017840  	0.260830 
705.946656  	0.258909 
707.875472  	0.256217 
709.804288  	0.253875 
711.733104  	0.252442 
713.661920  	0.251256 
715.590736  	0.250345 
717.519552  	0.249771 
719.448368  	0.250111 
721.377184  	0.251182 
723.306000  	0.252313 
725.234816  	0.252439 
727.163632  	0.251244 
729.092448  	0.248731 
731.021264  	0.245980 
732.950080  	0.243339 
734.878896  	0.240319 
736.807712  	0.237220 
738.736528  	0.235397 
740.665344  	0.234067 
742.594160  	0.232699 
744.522976  	0.231438 
746.451792  	0.230329 
748.380608  	0.229322 
750.309424  	0.228815 
752.238240  	0.228264 
754.167056  	0.227900 
756.095872  	0.227181 
758.024688  	0.226190 
759.953504  	0.225780 
761.882320  	0.225841 
763.811136  	0.226030 
765.739952  	0.225733 
767.668768  	0.224729 
769.597584  	0.223390 
771.526400  	0.223279 
773.455216  	0.225030 
775.384032  	0.227810 
777.312848  	0.231777 
779.241664  	0.235820 
781.170480  	0.236989 
783.099296  	0.234098 
785.028112  	0.228908 
786.956928  	0.222766 
788.885744  	0.217828 
790.814560  	0.214144 
792.743376  	0.211588 
794.672192  	0.210088 
796.601008  	0.209352 
798.529824  	0.207653 
800.458640  	0.204450 
802.387456  	0.201020 
804.316272  	0.199167 
806.245088  	0.198602 
808.173904  	0.198309 
810.102720  	0.198083 
812.031536  	0.198266 
813.960352  	0.198546 
815.889168  	0.198700 
817.817984  	0.198715 
819.746800  	0.198430 
821.675616  	0.198145 
823.604432  	0.198078 
825.533248  	0.197416 
827.462064  	0.196034 
829.390880  	0.194992 
831.319696  	0.194013 
833.248512  	0.192370 
835.177328  	0.190337 
837.106144  	0.187914 
839.034960  	0.185063 
840.963776  	0.181861 
842.892592  	0.179192 
844.821408  	0.176608 
846.750224  	0.173966 
848.679040  	0.171964 
850.607856  	0.170156 
852.536672  	0.168513 
854.465488  	0.166878 
856.394304  	0.165700 
858.323120  	0.164728 
860.251936  	0.163391 
862.180752  	0.161669 
864.109568  	0.160414 
866.038384  	0.159118 
867.967200  	0.157558 
869.896016  	0.156053 
871.824832  	0.154697 
873.753648  	0.153939 
875.682464  	0.153961 
877.611280  	0.154667 
879.540096  	0.155694 
881.468912  	0.156441 
883.397728  	0.156824 
885.326544  	0.157024 
887.255360  	0.156959 
889.184176  	0.156564 
891.112992  	0.155900 
893.041808  	0.154069 
894.970624  	0.151580 
896.899440  	0.148974 
898.828256  	0.145448 
900.757072  	0.141656 
902.685888  	0.138547 
904.614704  	0.136584 
906.543520  	0.136078 
908.472336  	0.136926 
910.401152  	0.138823 
912.329968  	0.141422 
914.258784  	0.144421 
916.187600  	0.147091 
918.116416  	0.148873 
920.045232  	0.149655 
921.974048  	0.149370 
923.902864  	0.148552 
925.831680  	0.147302 
927.760496  	0.146245 
929.689312  	0.145355 
931.618128  	0.145165 
933.546944  	0.145486 
935.475760  	0.145714 
937.404576  	0.145958 
939.333392  	0.146705 
941.262208  	0.148164 
943.191024  	0.150680 
945.119840  	0.154627 
947.048656  	0.159621 
948.977472  	0.165914 
950.906288  	0.173247 
952.835104  	0.180940 
954.763920  	0.188626 
956.692736  	0.195987 
958.621552  	0.201984 
960.550368  	0.205485 
962.479184  	0.206838 
964.408000  	0.205540 
966.336816  	0.201710 
968.265632  	0.194890 
970.194448  	0.186096 
972.123264  	0.176181 
974.052080  	0.165783 
975.980896  	0.155481 
977.909712  	0.146153 
979.838528  	0.138469 
981.767344  	0.132372 
983.696160  	0.127995 
985.624976  	0.125939 
987.553792  	0.126362 
989.482608  	0.128855 
991.411424  	0.133380 
993.340240  	0.139509 
995.269056  	0.146873 
997.197872  	0.154782 
999.126688  	0.162507 
1001.055504  	0.170194 
1002.984320  	0.177848 
1004.913136  	0.185492 
1006.841952  	0.192140 
1008.770768  	0.198132 
1010.699584  	0.202737 
1012.628400  	0.205730 
1014.557216  	0.207775 
1016.486032  	0.209395 
1018.414848  	0.210462 
1020.343664  	0.211525 
1022.272480  	0.212175 
1024.201296  	0.212962 
1026.130112  	0.214578 
1028.058928  	0.216090 
1029.987744  	0.216540 
1031.916560  	0.218983 
1033.845376  	0.222979 
1035.774192  	0.227961 
1037.703008  	0.233465 
1039.631824  	0.239851 
1041.560640  	0.247890 
1043.489456  	0.258920 
1045.418272  	0.272059 
1047.347088  	0.287055 
1049.275904  	0.301719 
1051.204720  	0.316124 
1053.133536  	0.328271 
1055.062352  	0.337395 
1056.991168  	0.343345 
1058.919984  	0.345862 
1060.848800  	0.344633 
1062.777616  	0.343605 
1064.706432  	0.341317 
1066.635248  	0.337502 
1068.564064  	0.330668 
1070.492880  	0.324097 
1072.421696  	0.317412 
1074.350512  	0.311554 
1076.279328  	0.306660 
1078.208144  	0.303022 
1080.136960  	0.299147 
1082.065776  	0.295141 
1083.994592  	0.290824 
1085.923408  	0.286790 
1087.852224  	0.281661 
1089.781040  	0.275504 
1091.709856  	0.267705 
1093.638672  	0.259284 
1095.567488  	0.249261 
1097.496304  	0.238939 
1099.425120  	0.228231 
1101.353936  	0.217230 
1103.282752  	0.205804 
1105.211568  	0.194456 
1107.140384  	0.183352 
1109.069200  	0.172495 
1110.998016  	0.161961 
1112.926832  	0.152205 
1114.855648  	0.142901 
1116.784464  	0.134064 
1118.713280  	0.126268 
1120.642096  	0.119133 
1122.570912  	0.112207 
1124.499728  	0.105836 
1126.428544  	0.100074 
1128.357360  	0.094697 
1130.286176  	0.089667 
1132.214992  	0.085424 
1134.143808  	0.081960 
1136.072624  	0.078811 
1138.001440  	0.075679 
1139.930256  	0.072605 
1141.859072  	0.069871 
1143.787888  	0.067235 
1145.716704  	0.065021 
1147.645520  	0.063180 
1149.574336  	0.061833 
1151.503152  	0.060859 
1153.431968  	0.060621 
1155.360784  	0.060873 
1157.289600  	0.061527 
1159.218416  	0.062352 
1161.147232  	0.063753 
1163.076048  	0.065185 
1165.004864  	0.066884 
1166.933680  	0.068580 
1168.862496  	0.070588 
1170.791312  	0.072948 
1172.720128  	0.075318 
1174.648944  	0.077736 
1176.577760  	0.080407 
1178.506576  	0.083025 
1180.435392  	0.085601 
1182.364208  	0.088174 
1184.293024  	0.090961 
1186.221840  	0.093974 
1188.150656  	0.097300 
1190.079472  	0.101220 
1192.008288  	0.105961 
1193.937104  	0.111357 
1195.865920  	0.117478 
1197.794736  	0.123829 
1199.723552  	0.130856 
1201.652368  	0.138520 
1203.581184  	0.146363 
1205.510000  	0.154031 
1207.438816  	0.161597 
1209.367632  	0.169073 
1211.296448  	0.175909 
1213.225264  	0.182233 
1215.154080  	0.187656 
1217.082896  	0.192293 
1219.011712  	0.195880 
1220.940528  	0.199337 
1222.869344  	0.202072 
1224.798160  	0.204015 
1226.726976  	0.205081 
1228.655792  	0.205714 
1230.584608  	0.205348 
1232.513424  	0.204163 
1234.442240  	0.201727 
1236.371056  	0.198533 
1238.299872  	0.194463 
1240.228688  	0.190082 
1242.157504  	0.184190 
1244.086320  	0.177293 
1246.015136  	0.170442 
1247.943952  	0.163830 
1249.872768  	0.157038 
1251.801584  	0.149876 
1253.730400  	0.142582 
1255.659216  	0.135638 
1257.588032  	0.129008 
1259.516848  	0.122660 
1261.445664  	0.116751 
1263.374480  	0.111371 
1265.303296  	0.106283 
1267.232112  	0.101840 
1269.160928  	0.098509 
1271.089744  	0.096247 
1273.018560  	0.095075 
1274.947376  	0.094502 
1276.876192  	0.093989 
1278.805008  	0.093263 
1280.733824  	0.091528 
1282.662640  	0.088562 
1284.591456  	0.084809 
1286.520272  	0.081087 
1288.449088  	0.078078 
1290.377904  	0.075733 
1292.306720  	0.073911 
1294.235536  	0.071803 
1296.164352  	0.068842 
1298.093168  	0.065316 
1300.021984  	0.061736 
1301.950800  	0.058440 
1303.879616  	0.055648 
1305.808432  	0.053212 
1307.737248  	0.051273 
1309.666064  	0.049563 
1311.594880  	0.048306 
1313.523696  	0.047600 
1315.452512  	0.047380 
1317.381328  	0.047500 
1319.310144  	0.048174 
1321.238960  	0.049166 
1323.167776  	0.050236 
1325.096592  	0.050960 
1327.025408  	0.051123 
1328.954224  	0.050696 
1330.883040  	0.049925 
1332.811856  	0.048902 
1334.740672  	0.047890 
1336.669488  	0.046761 
1338.598304  	0.045933 
1340.527120  	0.045561 
1342.455936  	0.045500 
1344.384752  	0.045588 
1346.313568  	0.046303 
1348.242384  	0.047466 
1350.171200  	0.049186 
1352.100016  	0.051225 
1354.028832  	0.053330 
1355.957648  	0.055616 
1357.886464  	0.057931 
1359.815280  	0.059700 
1361.744096  	0.061249 
1363.672912  	0.063575 
1365.601728  	0.065530 
1367.530544  	0.066412 
1369.459360  	0.067090 
1371.388176  	0.066942 
1373.316992  	0.065676 
1375.245808  	0.064535 
1377.174624  	0.063379 
1379.103440  	0.061664 
1381.032256  	0.060189 
1382.961072  	0.058766 
1384.889888  	0.057288 
1386.818704  	0.055385 
1388.747520  	0.054119 
1390.676336  	0.053419 
1392.605152  	0.053166 
1394.533968  	0.052345 
1396.462784  	0.051163 
1398.391600  	0.050979 
1400.320416  	0.052512 
1402.249232  	0.053814 
1404.178048  	0.055016 
1406.106864  	0.056795 
1408.035680  	0.058624 
1409.964496  	0.060066 
1411.893312  	0.061634 
1413.822128  	0.062893 
1415.750944  	0.063469 
1417.679760  	0.062845 
1419.608576  	0.062612 
1421.537392  	0.062534 
1423.466208  	0.061208 
1425.395024  	0.059822 
1427.323840  	0.058151 
1429.252656  	0.055847 
1431.181472  	0.054555 
1433.110288  	0.054151 
1435.039104  	0.053554 
1436.967920  	0.053809 
1438.896736  	0.055325 
1440.825552  	0.056008 
1442.754368  	0.056616 
1444.683184  	0.056623 
1446.612000  	0.056248 
1448.540816  	0.056652 
1450.469632  	0.057414 
1452.398448  	0.057330 
1454.327264  	0.056561 
1456.256080  	0.054667 
1458.184896  	0.055391 
1460.113712  	0.057161 
1462.042528  	0.057805 
1463.971344  	0.057603 
1465.900160  	0.059678 
1467.828976  	0.062150 
1469.757792  	0.064051 
1471.686608  	0.065952 
1473.615424  	0.071220 
1475.544240  	0.075561 
1477.473056  	0.079225 
1479.401872  	0.080991 
1481.330688  	0.081780 
1483.259504  	0.082053 
1485.188320  	0.080977 
1487.117136  	0.078456 
1489.045952  	0.075788 
1490.974768  	0.073409 
1492.903584  	0.071196 
1494.832400  	0.067192 
1496.761216  	0.062488 
1498.690032  	0.059017 
1500.618848  	0.056605 
1502.547664  	0.053897 
1504.476480  	0.050186 
1506.405296  	0.045750 
1508.334112  	0.046042 
1510.262928  	0.046376 
1512.191744  	0.045809 
1514.120560  	0.044764 
1516.049376  	0.043731 
1517.978192  	0.044413 
1519.907008  	0.045005 
1521.835824  	0.047223 
1523.764640  	0.050986 
1525.693456  	0.053584 
1527.622272  	0.056291 
1529.551088  	0.058099 
1531.479904  	0.057930 
1533.408720  	0.056578 
1535.337536  	0.056101 
1537.266352  	0.053357 
1539.195168  	0.048189 
1541.123984  	0.045643 
1543.052800  	0.045951 
1544.981616  	0.045692 
1546.910432  	0.045597 
1548.839248  	0.044461 
1550.768064  	0.044427 
1552.696880  	0.044280 
1554.625696  	0.044368 
1556.554512  	0.043392 
1558.483328  	0.042064 
1560.412144  	0.048929 
1562.340960  	0.053110 
1564.269776  	0.055340 
1566.198592  	0.059234 
1568.127408  	0.061847 
1570.056224  	0.066943 
1571.985040  	0.072242 
1573.913856  	0.074456 
1575.842672  	0.075492 
1577.771488  	0.078441 
1579.700304  	0.079085 
1581.629120  	0.079021 
1583.557936  	0.079175 
1585.486752  	0.080692 
1587.415568  	0.083298 
1589.344384  	0.087521 
1591.273200  	0.092571 
1593.202016  	0.098440 
1595.130832  	0.104063 
1597.059648  	0.109739 
1598.988464  	0.114044 
1600.917280  	0.117431 
1602.846096  	0.119278 
1604.774912  	0.120438 
1606.703728  	0.120016 
1608.632544  	0.119365 
1610.561360  	0.118564 
1612.490176  	0.118271 
1614.418992  	0.117253 
1616.347808  	0.117740 
1618.276624  	0.121615 
1620.205440  	0.125851 
1622.134256  	0.129455 
1624.063072  	0.136836 
1625.991888  	0.143942 
1627.920704  	0.151422 
1629.849520  	0.160020 
1631.778336  	0.167448 
1633.707152  	0.172199 
1635.635968  	0.178678 
1637.564784  	0.187453 
1639.493600  	0.193076 
1641.422416  	0.197042 
1643.351232  	0.199565 
1645.280048  	0.199254 
1647.208864  	0.199695 
1649.137680  	0.200951 
1651.066496  	0.199086 
1652.995312  	0.194055 
1654.924128  	0.195940 
1656.852944  	0.195783 
1658.781760  	0.193987 
1660.710576  	0.191212 
1662.639392  	0.188518 
1664.568208  	0.186971 
1666.497024  	0.184976 
1668.425840  	0.181312 
1670.354656  	0.179004 
1672.283472  	0.178357 
1674.212288  	0.176921 
1676.141104  	0.176534 
1678.069920  	0.177117 
1679.998736  	0.176770 
1681.927552  	0.175536 
1683.856368  	0.173256 
1685.785184  	0.175931 
1687.714000  	0.175935 
1689.642816  	0.174577 
1691.571632  	0.172966 
1693.500448  	0.170065 
1695.429264  	0.164890 
1697.358080  	0.161139 
1699.286896  	0.156734 
1701.215712  	0.152394 
1703.144528  	0.149645 
1705.073344  	0.144287 
1707.002160  	0.139200 
1708.930976  	0.134727 
1710.859792  	0.129105 
1712.788608  	0.122397 
1714.717424  	0.114800 
1716.646240  	0.106483 
1718.575056  	0.099324 
1720.503872  	0.093840 
1722.432688  	0.087725 
1724.361504  	0.080733 
1726.290320  	0.074560 
1728.219136  	0.068152 
1730.147952  	0.062023 
1732.076768  	0.056048 
1734.005584  	0.050083 
1735.934400  	0.046148 
1737.863216  	0.042781 
1739.792032  	0.037868 
1741.720848  	0.034587 
1743.649664  	0.031319 
1745.578480  	0.028438 
1747.507296  	0.025174 
1749.436112  	0.023145 
1751.364928  	0.022145 
1753.293744  	0.021882 
1755.222560  	0.020291 
1757.151376  	0.019242 
1759.080192  	0.018140 
1761.009008  	0.017158 
1762.937824  	0.016961 
1764.866640  	0.016964 
1766.795456  	0.015813 
1768.724272  	0.015230 
1770.653088  	0.013511 
1772.581904  	0.013266 
1774.510720  	0.014051 
1776.439536  	0.014297 
1778.368352  	0.013968 
1780.297168  	0.013799 
1782.225984  	0.013648 
1784.154800  	0.013565 
1786.083616  	0.013652 
1788.012432  	0.013462 
1789.941248  	0.012182 
1791.870064  	0.011757 
1793.798880  	0.012303 
1795.727696  	0.012773 
1797.656512  	0.012200 
1799.585328  	0.011554 
1801.514144  	0.011479 
1803.442960  	0.011884 
1805.371776  	0.011748 
1807.300592  	0.011492 
1809.229408  	0.010738 
1811.158224  	0.010820 
1813.087040  	0.010977 
1815.015856  	0.010897 
1816.944672  	0.010640 
1818.873488  	0.011107 
1820.802304  	0.011243 
1822.731120  	0.010971 
1824.659936  	0.010203 
1826.588752  	0.010374 
1828.517568  	0.009670 
1830.446384  	0.010177 
1832.375200  	0.010865 
1834.304016  	0.010890 
1836.232832  	0.010740 
1838.161648  	0.011093 
1840.090464  	0.010719 
1842.019280  	0.009842 
1843.948096  	0.009208 
1845.876912  	0.010314 
1847.805728  	0.010633 
1849.734544  	0.010963 
1851.663360  	0.010655 
1853.592176  	0.010645 
1855.520992  	0.010620 
1857.449808  	0.010851 
1859.378624  	0.010642 
1861.307440  	0.010744 
1863.236256  	0.010549 
1865.165072  	0.010353 
1867.093888  	0.009586 
1869.022704  	0.009850 
1870.951520  	0.010279 
1872.880336  	0.010673 
1874.809152  	0.010325 
1876.737968  	0.010344 
1878.666784  	0.010109 
1880.595600  	0.010212 
1882.524416  	0.010190 
1884.453232  	0.010221 
1886.382048  	0.009901 
1888.310864  	0.009915 
1890.239680  	0.010213 
1892.168496  	0.010569 
1894.097312  	0.010054 
1896.026128  	0.010260 
1897.954944  	0.010240 
1899.883760  	0.010392 
1901.812576  	0.010040 
1903.741392  	0.010223 
1905.670208  	0.010021 
1907.599024  	0.009746 
1909.527840  	0.009467 
1911.456656  	0.009842 
1913.385472  	0.009953 
1915.314288  	0.010200 
1917.243104  	0.009549 
1919.171920  	0.009778 
1921.100736  	0.009893 
1923.029552  	0.010189 
1924.958368  	0.009815 
1926.887184  	0.009831 
1928.816000  	0.009506 
1930.744816  	0.009215 
1932.673632  	0.009070 
1934.602448  	0.009796 
1936.531264  	0.009834 
1938.460080  	0.009887 
1940.388896  	0.009329 
1942.317712  	0.009413 
1944.246528  	0.009321 
1946.175344  	0.009740 
1948.104160  	0.009098 
1950.032976  	0.009238 
1951.961792  	0.009645 
1953.890608  	0.009525 
1955.819424  	0.008215 
1957.748240  	0.008776 
1959.677056  	0.008756 
1961.605872  	0.008648 
1963.534688  	0.008115 
1965.463504  	0.009189 
1967.392320  	0.008401 
1969.321136  	0.008523 
1971.249952  	0.008430 
1973.178768  	0.008542 
1975.107584  	0.007291 
1977.036400  	0.007324 
1978.965216  	0.009772 
1980.894032  	0.011265 
1982.822848  	0.009750 
1984.751664  	0.009814 
1986.680480  	0.009697 
1988.609296  	0.010077 
1990.538112  	0.009731 
1992.466928  	0.010165 
1994.395744  	0.009650 
1996.324560  	0.009433 
1998.253376  	0.009073 
2000.182192  	0.009342 
2002.111008  	0.009247 
2004.039824  	0.009464 
2005.968640  	0.008805 
2007.897456  	0.009811 
2009.826272  	0.009765 
2011.755088  	0.008932 
2013.683904  	0.009088 
2015.612720  	0.009966 
2017.541536  	0.009390 
2019.470352  	0.009624 
2021.399168  	0.008709 
2023.327984  	0.008954 
2025.256800  	0.008673 
2027.185616  	0.009084 
2029.114432  	0.009632 
2031.043248  	0.010778 
2032.972064  	0.010417 
2034.900880  	0.011045 
2036.829696  	0.010842 
2038.758512  	0.010340 
2040.687328  	0.009674 
2042.616144  	0.009676 
2044.544960  	0.009700 
2046.473776  	0.010975 
2048.402592  	0.010688 
2050.331408  	0.011604 
2052.260224  	0.011375 
2054.189040  	0.011078 
2056.117856  	0.010376 
2058.046672  	0.010450 
2059.975488  	0.010323 
2061.904304  	0.010154 
2063.833120  	0.011019 
2065.761936  	0.011806 
2067.690752  	0.011146 
2069.619568  	0.010940 
2071.548384  	0.010531 
2073.477200  	0.010851 
2075.406016  	0.011212 
2077.334832  	0.011675 
2079.263648  	0.010989 
2081.192464  	0.010691 
2083.121280  	0.010971 
2085.050096  	0.011122 
2086.978912  	0.010849 
2088.907728  	0.011187 
2090.836544  	0.010908 
2092.765360  	0.010269 
2094.694176  	0.010527 
2096.622992  	0.011216 
2098.551808  	0.010600 
2100.480624  	0.010471 
2102.409440  	0.010510 
2104.338256  	0.010910 
2106.267072  	0.011011 
2108.195888  	0.011384 
2110.124704  	0.011720 
2112.053520  	0.012123 
2113.982336  	0.011769 
2115.911152  	0.011699 
2117.839968  	0.011181 
2119.768784  	0.010579 
2121.697600  	0.010472 
2123.626416  	0.010610 
2125.555232  	0.010339 
2127.484048  	0.010395 
2129.412864  	0.009975 
2131.341680  	0.008963 
2133.270496  	0.009074 
2135.199312  	0.009901 
2137.128128  	0.010406 
2139.056944  	0.010127 
2140.985760  	0.009017 
2142.914576  	0.010388 
2144.843392  	0.010263 
2146.772208  	0.009669 
2148.701024  	0.009689 
2150.629840  	0.010339 
2152.558656  	0.009420 
2154.487472  	0.008135 
2156.416288  	0.008395 
2158.345104  	0.011298 
2160.273920  	0.012620 
2162.202736  	0.013380 
2164.131552  	0.013144 
2166.060368  	0.014275 
2167.989184  	0.012684 
2169.918000  	0.011278 
2171.846816  	0.011414 
2173.775632  	0.011959 
2175.704448  	0.011945 
2177.633264  	0.011919 
2179.562080  	0.011164 
2181.490896  	0.011633 
2183.419712  	0.011459 
2185.348528  	0.011849 
2187.277344  	0.011990 
2189.206160  	0.012415 
2191.134976  	0.012749 
2193.063792  	0.013480 
2194.992608  	0.013060 
2196.921424  	0.012558 
2198.850240  	0.013042 
2200.779056  	0.012973 
2202.707872  	0.012148 
2204.636688  	0.012236 
2206.565504  	0.012251 
2208.494320  	0.012358 
2210.423136  	0.011586 
2212.351952  	0.011763 
2214.280768  	0.011876 
2216.209584  	0.011277 
2218.138400  	0.010994 
2220.067216  	0.011440 
2221.996032  	0.011589 
2223.924848  	0.011661 
2225.853664  	0.012096 
2227.782480  	0.012975 
2229.711296  	0.013042 
2231.640112  	0.012481 
2233.568928  	0.011691 
2235.497744  	0.011718 
2237.426560  	0.011605 
2239.355376  	0.011566 
2241.284192  	0.011473 
2243.213008  	0.011961 
2245.141824  	0.012033 
2247.070640  	0.011506 
2248.999456  	0.011536 
2250.928272  	0.011991 
2252.857088  	0.011732 
2254.785904  	0.011650 
2256.714720  	0.012207 
2258.643536  	0.012629 
2260.572352  	0.012025 
2262.501168  	0.011805 
2264.429984  	0.011823 
2266.358800  	0.012667 
2268.287616  	0.012800 
2270.216432  	0.012773 
2272.145248  	0.012519 
2274.074064  	0.012486 
2276.002880  	0.012363 
2277.931696  	0.013101 
2279.860512  	0.013590 
2281.789328  	0.013523 
2283.718144  	0.013416 
2285.646960  	0.013529 
2287.575776  	0.013485 
2289.504592  	0.013099 
2291.433408  	0.012582 
2293.362224  	0.012526 
2295.291040  	0.012565 
2297.219856  	0.012716 
2299.148672  	0.012614 
2301.077488  	0.012446 
2303.006304  	0.012378 
2304.935120  	0.012156 
2306.863936  	0.011767 
2308.792752  	0.011562 
2310.721568  	0.011670 
2312.650384  	0.011706 
2314.579200  	0.011475 
2316.508016  	0.011161 
2318.436832  	0.010605 
2320.365648  	0.010318 
2322.294464  	0.010067 
2324.223280  	0.009452 
2326.152096  	0.008008 
2328.080912  	0.006984 
2330.009728  	0.006340 
2331.938544  	0.006166 
2333.867360  	0.005764 
2335.796176  	0.005299 
2337.724992  	0.004609 
2339.653808  	0.004179 
2341.582624  	0.004151 
2343.511440  	0.005443 
2345.440256  	0.006894 
2347.369072  	0.008579 
2349.297888  	0.008369 
2351.226704  	0.006275 
2353.155520  	0.004817 
2355.084336  	0.003470 
2357.013152  	0.002156 
2358.941968  	0.001288 
2360.870784  	0.000619 
2362.799600  	0.000952 
2364.728416  	0.001872 
2366.657232  	0.003257 
2368.586048  	0.004425 
2370.514864  	0.006013 
2372.443680  	0.007529 
2374.372496  	0.009409 
2376.301312  	0.010649 
2378.230128  	0.011711 
2380.158944  	0.012325 
2382.087760  	0.012699 
2384.016576  	0.012992 
2385.945392  	0.013281 
2387.874208  	0.013152 
2389.803024  	0.013058 
2391.731840  	0.013038 
2393.660656  	0.013178 
2395.589472  	0.013321 
2397.518288  	0.013419 
2399.447104  	0.013364 
2401.375920  	0.013221 
2403.304736  	0.013225 
2405.233552  	0.013522 
2407.162368  	0.013857 
2409.091184  	0.013822 
2411.020000  	0.013659 
2412.948816  	0.013793 
2414.877632  	0.013977 
2416.806448  	0.014059 
2418.735264  	0.014117 
2420.664080  	0.014093 
2422.592896  	0.013846 
2424.521712  	0.013909 
2426.450528  	0.013962 
2428.379344  	0.013871 
2430.308160  	0.013695 
2432.236976  	0.013890 
2434.165792  	0.014449 
2436.094608  	0.014888 
2438.023424  	0.014917 
2439.952240  	0.014909 
2441.881056  	0.015017 
2443.809872  	0.015091 
2445.738688  	0.014951 
2447.667504  	0.015031 
2449.596320  	0.015065 
2451.525136  	0.015046 
2453.453952  	0.015097 
2455.382768  	0.015450 
2457.311584  	0.015750 
2459.240400  	0.015734 
2461.169216  	0.015520 
2463.098032  	0.015482 
2465.026848  	0.015383 
2466.955664  	0.015243 
2468.884480  	0.015163 
2470.813296  	0.015356 
2472.742112  	0.015382 
2474.670928  	0.015324 
2476.599744  	0.015398 
2478.528560  	0.015625 
2480.457376  	0.015883 
2482.386192  	0.015775 
2484.315008  	0.015654 
2486.243824  	0.015814 
2488.172640  	0.015890 
2490.101456  	0.016049 
2492.030272  	0.016337 
2493.959088  	0.016265 
2495.887904  	0.016033 
2497.816720  	0.016064 
2499.745536  	0.016141 
2501.674352  	0.016488 
2503.603168  	0.016454 
2505.531984  	0.016433 
2507.460800  	0.016490 
2509.389616  	0.016447 
2511.318432  	0.016223 
2513.247248  	0.016291 
2515.176064  	0.016523 
2517.104880  	0.016961 
2519.033696  	0.017080 
2520.962512  	0.017097 
2522.891328  	0.017322 
2524.820144  	0.017428 
2526.748960  	0.017459 
2528.677776  	0.017641 
2530.606592  	0.017430 
2532.535408  	0.017359 
2534.464224  	0.017767 
2536.393040  	0.017865 
2538.321856  	0.017544 
2540.250672  	0.017609 
2542.179488  	0.017777 
2544.108304  	0.017983 
2546.037120  	0.017928 
2547.965936  	0.018283 
2549.894752  	0.018501 
2551.823568  	0.018382 
2553.752384  	0.018362 
2555.681200  	0.018339 
2557.610016  	0.018439 
2559.538832  	0.018747 
2561.467648  	0.018924 
2563.396464  	0.019168 
2565.325280  	0.019457 
2567.254096  	0.019545 
2569.182912  	0.019208 
2571.111728  	0.019070 
2573.040544  	0.019002 
2574.969360  	0.019068 
2576.898176  	0.019334 
2578.826992  	0.019708 
2580.755808  	0.019720 
2582.684624  	0.019612 
2584.613440  	0.019538 
2586.542256  	0.019651 
2588.471072  	0.019883 
2590.399888  	0.020161 
2592.328704  	0.020216 
2594.257520  	0.020357 
2596.186336  	0.020628 
2598.115152  	0.020759 
2600.043968  	0.020620 
2601.972784  	0.020626 
2603.901600  	0.020840 
2605.830416  	0.021006 
2607.759232  	0.020940 
2609.688048  	0.021137 
2611.616864  	0.021361 
2613.545680  	0.021530 
2615.474496  	0.021650 
2617.403312  	0.021698 
2619.332128  	0.021762 
2621.260944  	0.021897 
2623.189760  	0.021936 
2625.118576  	0.022070 
2627.047392  	0.022285 
2628.976208  	0.022625 
2630.905024  	0.022664 
2632.833840  	0.022760 
2634.762656  	0.022906 
2636.691472  	0.023008 
2638.620288  	0.023054 
2640.549104  	0.023157 
2642.477920  	0.023334 
2644.406736  	0.023486 
2646.335552  	0.023679 
2648.264368  	0.023949 
2650.193184  	0.024161 
2652.122000  	0.024292 
2654.050816  	0.024377 
2655.979632  	0.024418 
2657.908448  	0.024482 
2659.837264  	0.024560 
2661.766080  	0.024565 
2663.694896  	0.024618 
2665.623712  	0.024522 
2667.552528  	0.024536 
2669.481344  	0.024749 
2671.410160  	0.025008 
2673.338976  	0.025207 
2675.267792  	0.025317 
2677.196608  	0.025415 
2679.125424  	0.025603 
2681.054240  	0.025700 
2682.983056  	0.025735 
2684.911872  	0.025879 
2686.840688  	0.026046 
2688.769504  	0.026181 
2690.698320  	0.026259 
2692.627136  	0.026442 
2694.555952  	0.026620 
2696.484768  	0.026645 
2698.413584  	0.026794 
2700.342400  	0.026913 
2702.271216  	0.027081 
2704.200032  	0.027293 
2706.128848  	0.027456 
2708.057664  	0.027651 
2709.986480  	0.027699 
2711.915296  	0.027721 
2713.844112  	0.027917 
2715.772928  	0.028187 
2717.701744  	0.028363 
2719.630560  	0.028406 
2721.559376  	0.028526 
2723.488192  	0.028661 
2725.417008  	0.028897 
2727.345824  	0.029115 
2729.274640  	0.029160 
2731.203456  	0.029206 
2733.132272  	0.029412 
2735.061088  	0.029610 
2736.989904  	0.029742 
2738.918720  	0.029768 
2740.847536  	0.029805 
2742.776352  	0.030010 
2744.705168  	0.030293 
2746.633984  	0.030281 
2748.562800  	0.030340 
2750.491616  	0.030557 
2752.420432  	0.030646 
2754.349248  	0.030660 
2756.278064  	0.030807 
2758.206880  	0.030872 
2760.135696  	0.031111 
2762.064512  	0.031161 
2763.993328  	0.031086 
2765.922144  	0.031115 
2767.850960  	0.031158 
2769.779776  	0.031256 
2771.708592  	0.031412 
2773.637408  	0.031480 
2775.566224  	0.031615 
2777.495040  	0.031704 
2779.423856  	0.031802 
2781.352672  	0.031936 
2783.281488  	0.031986 
2785.210304  	0.031997 
2787.139120  	0.032214 
2789.067936  	0.032457 
2790.996752  	0.032479 
2792.925568  	0.032561 
2794.854384  	0.032854 
2796.783200  	0.033026 
2798.712016  	0.032932 
2800.640832  	0.032959 
2802.569648  	0.033154 
2804.498464  	0.033311 
2806.427280  	0.033398 
2808.356096  	0.033558 
2810.284912  	0.033737 
2812.213728  	0.033747 
2814.142544  	0.033830 
2816.071360  	0.034005 
2818.000176  	0.034034 
2819.928992  	0.034146 
2821.857808  	0.034386 
2823.786624  	0.034478 
2825.715440  	0.034413 
2827.644256  	0.034330 
2829.573072  	0.034478 
2831.501888  	0.034570 
2833.430704  	0.034597 
2835.359520  	0.034622 
2837.288336  	0.034753 
2839.217152  	0.034885 
2841.145968  	0.034872 
2843.074784  	0.034899 
2845.003600  	0.035239 
2846.932416  	0.035706 
2848.861232  	0.035970 
2850.790048  	0.036204 
2852.718864  	0.036387 
2854.647680  	0.036580 
2856.576496  	0.036954 
2858.505312  	0.037283 
2860.434128  	0.037578 
2862.362944  	0.037952 
2864.291760  	0.038335 
2866.220576  	0.038722 
2868.149392  	0.039370 
2870.078208  	0.040207 
2872.007024  	0.040740 
2873.935840  	0.041175 
2875.864656  	0.041844 
2877.793472  	0.042719 
2879.722288  	0.043544 
2881.651104  	0.044336 
2883.579920  	0.044992 
2885.508736  	0.045437 
2887.437552  	0.045733 
2889.366368  	0.045956 
2891.295184  	0.046224 
2893.224000  	0.046404 
2895.152816  	0.046638 
2897.081632  	0.046776 
2899.010448  	0.047221 
2900.939264  	0.047977 
2902.868080  	0.047777 
2904.796896  	0.047495 
2906.725712  	0.047516 
2908.654528  	0.047666 
2910.583344  	0.048038 
2912.512160  	0.048482 
2914.440976  	0.048966 
2916.369792  	0.049420 
2918.298608  	0.049796 
2920.227424  	0.050313 
2922.156240  	0.050928 
2924.085056  	0.051252 
2926.013872  	0.051750 
2927.942688  	0.052397 
2929.871504  	0.052995 
2931.800320  	0.053529 
2933.729136  	0.053905 
2935.657952  	0.054227 
2937.586768  	0.054616 
2939.515584  	0.054965 
2941.444400  	0.055359 
2943.373216  	0.055760 
2945.302032  	0.055949 
2947.230848  	0.056004 
2949.159664  	0.056184 
2951.088480  	0.056373 
2953.017296  	0.056575 
2954.946112  	0.056669 
2956.874928  	0.056820 
2958.803744  	0.056826 
2960.732560  	0.056634 
2962.661376  	0.056580 
2964.590192  	0.056675 
2966.519008  	0.056990 
2968.447824  	0.057171 
2970.376640  	0.057229 
2972.305456  	0.057041 
2974.234272  	0.056654 
2976.163088  	0.056216 
2978.091904  	0.055853 
2980.020720  	0.055718 
2981.949536  	0.055587 
2983.878352  	0.055489 
2985.807168  	0.055685 
2987.735984  	0.056116 
2989.664800  	0.056051 
2991.593616  	0.055025 
2993.522432  	0.054269 
2995.451248  	0.054022 
2997.380064  	0.053895 
2999.308880  	0.053742 
3001.237696  	0.053510 
3003.166512  	0.053155 
3005.095328  	0.052779 
3007.024144  	0.052672 
3008.952960  	0.052476 
3010.881776  	0.052161 
3012.810592  	0.051757 
3014.739408  	0.051454 
3016.668224  	0.051434 
3018.597040  	0.051304 
3020.525856  	0.051042 
3022.454672  	0.051045 
3024.383488  	0.051085 
3026.312304  	0.051063 
3028.241120  	0.050937 
3030.169936  	0.050716 
3032.098752  	0.050832 
3034.027568  	0.050902 
3035.956384  	0.050778 
3037.885200  	0.050802 
3039.814016  	0.051087 
3041.742832  	0.051503 
3043.671648  	0.051722 
3045.600464  	0.051819 
3047.529280  	0.051971 
3049.458096  	0.052253 
3051.386912  	0.052409 
3053.315728  	0.052604 
3055.244544  	0.052898 
3057.173360  	0.053455 
3059.102176  	0.053850 
3061.030992  	0.054149 
3062.959808  	0.054582 
3064.888624  	0.055139 
3066.817440  	0.055733 
3068.746256  	0.056081 
3070.675072  	0.056377 
3072.603888  	0.056951 
3074.532704  	0.057539 
3076.461520  	0.057882 
3078.390336  	0.058109 
3080.319152  	0.058488 
3082.247968  	0.059084 
3084.176784  	0.059735 
3086.105600  	0.059981 
3088.034416  	0.060254 
3089.963232  	0.060794 
3091.892048  	0.061277 
3093.820864  	0.061554 
3095.749680  	0.062043 
3097.678496  	0.062308 
3099.607312  	0.062654 
3101.536128  	0.063059 
3103.464944  	0.063501 
3105.393760  	0.064006 
3107.322576  	0.064490 
3109.251392  	0.064842 
3111.180208  	0.065129 
3113.109024  	0.065349 
3115.037840  	0.065612 
3116.966656  	0.065984 
3118.895472  	0.066496 
3120.824288  	0.066841 
3122.753104  	0.067097 
3124.681920  	0.067439 
3126.610736  	0.067675 
3128.539552  	0.067905 
3130.468368  	0.068149 
3132.397184  	0.068280 
3134.326000  	0.068447 
3136.254816  	0.068786 
3138.183632  	0.069109 
3140.112448  	0.069356 
3142.041264  	0.069644 
3143.970080  	0.070039 
3145.898896  	0.070258 
3147.827712  	0.070380 
3149.756528  	0.070702 
3151.685344  	0.071280 
3153.614160  	0.071836 
3155.542976  	0.072161 
3157.471792  	0.072306 
3159.400608  	0.072895 
3161.329424  	0.073324 
3163.258240  	0.073615 
3165.187056  	0.073843 
3167.115872  	0.073960 
3169.044688  	0.074192 
3170.973504  	0.074399 
3172.902320  	0.074564 
3174.831136  	0.074895 
3176.759952  	0.075162 
3178.688768  	0.075336 
3180.617584  	0.075470 
3182.546400  	0.075317 
3184.475216  	0.075607 
3186.404032  	0.075937 
3188.332848  	0.076050 
3190.261664  	0.076240 
3192.190480  	0.076142 
3194.119296  	0.075881 
3196.048112  	0.075876 
3197.976928  	0.076211 
3199.905744  	0.076342 
3201.834560  	0.076261 
3203.763376  	0.076151 
3205.692192  	0.076004 
3207.621008  	0.075936 
3209.549824  	0.075801 
3211.478640  	0.075559 
3213.407456  	0.075199 
3215.336272  	0.075257 
3217.265088  	0.075184 
3219.193904  	0.074829 
3221.122720  	0.074534 
3223.051536  	0.074236 
3224.980352  	0.073952 
3226.909168  	0.073706 
3228.837984  	0.073548 
3230.766800  	0.073568 
3232.695616  	0.073504 
3234.624432  	0.073371 
3236.553248  	0.073165 
3238.482064  	0.073134 
3240.410880  	0.073138 
3242.339696  	0.072993 
3244.268512  	0.072804 
3246.197328  	0.072676 
3248.126144  	0.072693 
3250.054960  	0.072858 
3251.983776  	0.072790 
3253.912592  	0.072812 
3255.841408  	0.073017 
3257.770224  	0.073138 
3259.699040  	0.073307 
3261.627856  	0.073333 
3263.556672  	0.073291 
3265.485488  	0.073323 
3267.414304  	0.073516 
3269.343120  	0.073774 
3271.271936  	0.074071 
3273.200752  	0.074226 
3275.129568  	0.074185 
3277.058384  	0.074134 
3278.987200  	0.074340 
3280.916016  	0.074659 
3282.844832  	0.074705 
3284.773648  	0.074717 
3286.702464  	0.074753 
3288.631280  	0.074869 
3290.560096  	0.075133 
3292.488912  	0.075537 
3294.417728  	0.075700 
3296.346544  	0.075801 
3298.275360  	0.075944 
3300.204176  	0.076126 
3302.132992  	0.076319 
3304.061808  	0.076678 
3305.990624  	0.077082 
3307.919440  	0.077219 
3309.848256  	0.077257 
3311.777072  	0.077378 
3313.705888  	0.077636 
3315.634704  	0.078036 
3317.563520  	0.078361 
3319.492336  	0.078520 
3321.421152  	0.078477 
3323.349968  	0.078584 
3325.278784  	0.078895 
3327.207600  	0.079130 
3329.136416  	0.079094 
3331.065232  	0.078969 
3332.994048  	0.078990 
3334.922864  	0.078973 
3336.851680  	0.078785 
3338.780496  	0.078775 
3340.709312  	0.078787 
3342.638128  	0.078688 
3344.566944  	0.078479 
3346.495760  	0.078232 
3348.424576  	0.078161 
3350.353392  	0.077941 
3352.282208  	0.077567 
3354.211024  	0.077195 
3356.139840  	0.077077 
3358.068656  	0.076878 
3359.997472  	0.076496 
3361.926288  	0.076106 
3363.855104  	0.075668 
3365.783920  	0.075341 
3367.712736  	0.075079 
3369.641552  	0.074745 
3371.570368  	0.074377 
3373.499184  	0.074037 
3375.428000  	0.073545 
3377.356816  	0.073319 
3379.285632  	0.073193 
3381.214448  	0.072935 
3383.143264  	0.072569 
3385.072080  	0.072283 
3387.000896  	0.072008 
3388.929712  	0.071625 
3390.858528  	0.071154 
3392.787344  	0.070786 
3394.716160  	0.070483 
3396.644976  	0.070174 
3398.573792  	0.069771 
3400.502608  	0.069165 
3402.431424  	0.068654 
3404.360240  	0.068428 
3406.289056  	0.068143 
3408.217872  	0.067763 
3410.146688  	0.067336 
3412.075504  	0.067170 
3414.004320  	0.066931 
3415.933136  	0.066322 
3417.861952  	0.065831 
3419.790768  	0.065478 
3421.719584  	0.065164 
3423.648400  	0.064639 
3425.577216  	0.064380 
3427.506032  	0.064135 
3429.434848  	0.063589 
3431.363664  	0.063036 
3433.292480  	0.062615 
3435.221296  	0.062319 
3437.150112  	0.062113 
3439.078928  	0.062029 
3441.007744  	0.061604 
3442.936560  	0.061130 
3444.865376  	0.060431 
3446.794192  	0.059589 
3448.723008  	0.059443 
3450.651824  	0.059045 
3452.580640  	0.058461 
3454.509456  	0.058019 
3456.438272  	0.057586 
3458.367088  	0.057126 
3460.295904  	0.056714 
3462.224720  	0.055997 
3464.153536  	0.055329 
3466.082352  	0.055007 
3468.011168  	0.054723 
3469.939984  	0.054318 
3471.868800  	0.053712 
3473.797616  	0.053103 
3475.726432  	0.052645 
3477.655248  	0.052096 
3479.584064  	0.051361 
3481.512880  	0.050721 
3483.441696  	0.050282 
3485.370512  	0.049550 
3487.299328  	0.048935 
3489.228144  	0.048686 
3491.156960  	0.048127 
3493.085776  	0.047476 
3495.014592  	0.046729 
3496.943408  	0.046303 
3498.872224  	0.045810 
3500.801040  	0.045099 
3502.729856  	0.044545 
3504.658672  	0.044367 
3506.587488  	0.043806 
3508.516304  	0.043039 
3510.445120  	0.042810 
3512.373936  	0.042676 
3514.302752  	0.042139 
3516.231568  	0.041604 
3518.160384  	0.041088 
3520.089200  	0.040637 
3522.018016  	0.040068 
3523.946832  	0.039685 
3525.875648  	0.039298 
3527.804464  	0.038803 
3529.733280  	0.038545 
3531.662096  	0.038293 
3533.590912  	0.037997 
3535.519728  	0.037543 
3537.448544  	0.037326 
3539.377360  	0.036982 
3541.306176  	0.036243 
3543.234992  	0.035417 
3545.163808  	0.034959 
3547.092624  	0.034904 
3549.021440  	0.034595 
3550.950256  	0.033835 
3552.879072  	0.033600 
3554.807888  	0.033628 
3556.736704  	0.033340 
3558.665520  	0.032954 
3560.594336  	0.032483 
3562.523152  	0.031497 
3564.451968  	0.030318 
3566.380784  	0.029555 
3568.309600  	0.030214 
3570.238416  	0.030454 
3572.167232  	0.029852 
3574.096048  	0.029359 
3576.024864  	0.028714 
3577.953680  	0.028011 
3579.882496  	0.027628 
3581.811312  	0.027280 
3583.740128  	0.026351 
3585.668944  	0.025080 
3587.597760  	0.024902 
3589.526576  	0.025565 
3591.455392  	0.024646 
3593.384208  	0.023558 
3595.313024  	0.023209 
3597.241840  	0.022909 
3599.170656  	0.022226 
3601.099472  	0.021959 
3603.028288  	0.021954 
3604.957104  	0.020883 
3606.885920  	0.019487 
3608.814736  	0.019663 
3610.743552  	0.019271 
3612.672368  	0.018055 
3614.601184  	0.017677 
3616.530000  	0.016664 
3618.458816  	0.015926 
3620.387632  	0.016714 
3622.316448  	0.016823 
3624.245264  	0.016051 
3626.174080  	0.014143 
3628.102896  	0.012338 
3630.031712  	0.014209 
3631.960528  	0.014344 
3633.889344  	0.013487 
3635.818160  	0.013190 
3637.746976  	0.012883 
3639.675792  	0.012922 
3641.604608  	0.012717 
3643.533424  	0.012133 
3645.462240  	0.010194 
3647.391056  	0.008086 
3649.319872  	0.008091 
3651.248688  	0.010548 
3653.177504  	0.011048 
3655.106320  	0.009899 
3657.035136  	0.010538 
3658.963952  	0.010787 
3660.892768  	0.010183 
3662.821584  	0.009841 
3664.750400  	0.009352 
3666.679216  	0.008044 
3668.608032  	0.006242 
3670.536848  	0.006673 
3672.465664  	0.006776 
3674.394480  	0.004660 
3676.323296  	0.006729 
3678.252112  	0.007677 
3680.180928  	0.007501 
3682.109744  	0.007644 
3684.038560  	0.007279 
3685.967376  	0.005906 
3687.896192  	0.004272 
3689.825008  	0.004769 
3691.753824  	0.005948 
3693.682640  	0.006265 
3695.611456  	0.005659 
3697.540272  	0.005253 
3699.469088  	0.004490 
3701.397904  	0.004395 
3703.326720  	0.005092 
3705.255536  	0.004749 
3707.184352  	0.003544 
3709.113168  	0.002303 
3711.041984  	0.002104 
3712.970800  	0.003736 
3714.899616  	0.004525 
3716.828432  	0.004181 
3718.757248  	0.003575 
3720.686064  	0.002968 
3722.614880  	0.003175 
3724.543696  	0.003322 
3726.472512  	0.003480 
3728.401328  	0.003579 
3730.330144  	0.002005 
3732.258960  	0.000762 
3734.187776  	0.000624 
3736.116592  	0.002353 
3738.045408  	0.003479 
3739.974224  	0.002976 
3741.903040  	0.001655 
3743.831856  	0.001196 
3745.760672  	0.003184 
3747.689488  	0.001484 
3749.618304  	0.000176 
3751.547120  	0.001421 
3753.475936  	0.004014 
3755.404752  	0.003951 
3757.333568  	0.002966 
3759.262384  	0.003079 
3761.191200  	0.004404 
3763.120016  	0.004159 
3765.048832  	0.003622 
3766.977648  	0.003715 
3768.906464  	0.003359 
3770.835280  	0.004418 
3772.764096  	0.004975 
3774.692912  	0.004663 
3776.621728  	0.003970 
3778.550544  	0.003367 
3780.479360  	0.004083 
3782.408176  	0.004188 
3784.336992  	0.003896 
3786.265808  	0.004224 
3788.194624  	0.004556 
3790.123440  	0.004618 
3792.052256  	0.004528 
3793.981072  	0.003821 
3795.909888  	0.003284 
3797.838704  	0.003394 
3799.767520  	0.001993 
3801.696336  	0.002378 
3803.625152  	0.003757 
3805.553968  	0.002748 
3807.482784  	0.003792 
3809.411600  	0.005031 
3811.340416  	0.004654 
3813.269232  	0.003520 
3815.198048  	0.002219 
3817.126864  	0.002990 
3819.055680  	0.001795 
3820.984496  	0.001850 
3822.913312  	0.004386 
3824.842128  	0.004032 
3826.770944  	0.003731 
3828.699760  	0.003768 
3830.628576  	0.003175 
3832.557392  	0.003137 
3834.486208  	0.002566 
3836.415024  	0.001524 
3838.343840  	0.001906 
3840.272656  	0.002867 
3842.201472  	0.003371 
3844.130288  	0.003753 
3846.059104  	0.004380 
3847.987920  	0.004018 
3849.916736  	0.002455 
3851.845552  	0.000274 
3853.774368  	0.002115 
3855.703184  	0.004447 
3857.632000  	0.004097 
3859.560816  	0.003640 
3861.489632  	0.003026 
3863.418448  	0.002882 
3865.347264  	0.003621 
3867.276080  	0.003263 
3869.204896  	0.002325 
3871.133712  	0.004034 
3873.062528  	0.003816 
3874.991344  	0.004408 
3876.920160  	0.004371 
3878.848976  	0.003188 
3880.777792  	0.003420 
3882.706608  	0.003903 
3884.635424  	0.003287 
3886.564240  	0.004583 
3888.493056  	0.004436 
3890.421872  	0.003538 
3892.350688  	0.004188 
3894.279504  	0.004510 
3896.208320  	0.004042 
3898.137136  	0.003342 
3900.065952  	0.003239 
3901.994768  	0.003097 
3903.923584  	0.003500 
3905.852400  	0.004705 
3907.781216  	0.004935 
3909.710032  	0.004707 
3911.638848  	0.004695 
3913.567664  	0.004621 
3915.496480  	0.004193 
3917.425296  	0.004548 
3919.354112  	0.004852 
3921.282928  	0.004879 
3923.211744  	0.004593 
3925.140560  	0.004655 
3927.069376  	0.004709 
3928.998192  	0.004356 
3930.927008  	0.004265 
3932.855824  	0.004677 
3934.784640  	0.004905 
3936.713456  	0.004912 
3938.642272  	0.004868 
3940.571088  	0.004442 
3942.499904  	0.004632 
3944.428720  	0.005119 
3946.357536  	0.004703 
3948.286352  	0.004436 
3950.215168  	0.004459 
3952.143984  	0.004591 
3954.072800  	0.004871 
3956.001616  	0.004982 
3957.930432  	0.005041 
3959.859248  	0.005102 
3961.788064  	0.004911 
3963.716880  	0.004983 
3965.645696  	0.004991 
3967.574512  	0.004963 
3969.503328  	0.004958 
3971.432144  	0.004929 
3973.360960  	0.004866 
3975.289776  	0.005015 
3977.218592  	0.005173 
3979.147408  	0.005214 
3981.076224  	0.004966 
3983.005040  	0.004856 
3984.933856  	0.005060 
3986.862672  	0.005250 
3988.791488  	0.005158 
3990.720304  	0.005195 
3992.649120  	0.005312 
3994.577936  	0.005177 
3996.506752  	0.005017 
3998.435568  	0.005107 
4000.364384  	0.005149 