##TITLE=No Description
##DATA TYPE=INFRARED SPECTRUM
##XUNITS=1/CM
##YUNITS=Abs
399.264912  	0.599834 
401.193728  	0.580184 
403.122544  	0.581273 
405.051360  	0.580638 
406.980176  	0.579518 
408.908992  	0.564957 
410.837808  	0.562285 
412.766624  	0.558819 
414.695440  	0.565512 
416.624256  	0.562810 
418.553072  	0.554552 
420.481888  	0.547868 
422.410704  	0.548184 
424.339520  	0.544331 
426.268336  	0.554049 
428.197152  	0.548894 
430.125968  	0.543162 
432.054784  	0.536183 
433.983600  	0.539509 
435.912416  	0.533817 
437.841232  	0.527469 
439.770048  	0.520936 
441.698864  	0.524223 
443.627680  	0.524593 
445.556496  	0.523085 
447.485312  	0.517274 
449.414128  	0.515454 
451.342944  	0.513761 
453.271760  	0.516013 
455.200576  	0.510903 
457.129392  	0.508737 
459.058208  	0.508488 
460.987024  	0.511012 
462.915840  	0.510912 
464.844656  	0.511139 
466.773472  	0.506736 
468.702288  	0.508793 
470.631104  	0.509155 
472.559920  	0.510931 
474.488736  	0.504146 
476.417552  	0.504904 
478.346368  	0.504652 
480.275184  	0.504548 
482.204000  	0.508120 
484.132816  	0.511165 
486.061632  	0.505023 
487.990448  	0.504642 
489.919264  	0.503539 
491.848080  	0.504543 
493.776896  	0.502134 
495.705712  	0.500647 
497.634528  	0.500303 
499.563344  	0.500195 
501.492160  	0.498993 
503.420976  	0.501997 
505.349792  	0.499746 
507.278608  	0.498860 
509.207424  	0.496369 
511.136240  	0.497178 
513.065056  	0.499236 
514.993872  	0.498899 
516.922688  	0.496763 
518.851504  	0.498283 
520.780320  	0.497799 
522.709136  	0.497789 
524.637952  	0.493352 
526.566768  	0.493572 
528.495584  	0.493991 
530.424400  	0.491429 
532.353216  	0.487034 
534.282032  	0.482442 
536.210848  	0.477239 
538.139664  	0.474515 
540.068480  	0.471115 
541.997296  	0.466388 
543.926112  	0.460620 
545.854928  	0.458781 
547.783744  	0.455409 
549.712560  	0.451279 
551.641376  	0.447224 
553.570192  	0.444756 
555.499008  	0.441109 
557.427824  	0.438723 
559.356640  	0.434539 
561.285456  	0.430341 
563.214272  	0.426974 
565.143088  	0.424252 
567.071904  	0.420370 
569.000720  	0.416461 
570.929536  	0.412105 
572.858352  	0.409093 
574.787168  	0.406354 
576.715984  	0.403139 
578.644800  	0.398665 
580.573616  	0.395067 
582.502432  	0.391056 
584.431248  	0.387955 
586.360064  	0.385299 
588.288880  	0.383547 
590.217696  	0.381281 
592.146512  	0.379391 
594.075328  	0.376897 
596.004144  	0.374715 
597.932960  	0.373000 
599.861776  	0.372295 
601.790592  	0.371348 
603.719408  	0.370025 
605.648224  	0.368081 
607.577040  	0.368426 
609.505856  	0.368069 
611.434672  	0.365742 
613.363488  	0.363233 
615.292304  	0.362246 
617.221120  	0.360026 
619.149936  	0.358211 
621.078752  	0.355991 
623.007568  	0.354089 
624.936384  	0.351879 
626.865200  	0.350719 
628.794016  	0.350151 
630.722832  	0.348970 
632.651648  	0.347799 
634.580464  	0.347356 
636.509280  	0.347707 
638.438096  	0.347554 
640.366912  	0.346470 
642.295728  	0.345061 
644.224544  	0.343081 
646.153360  	0.340790 
648.082176  	0.336979 
650.010992  	0.333754 
651.939808  	0.330496 
653.868624  	0.327022 
655.797440  	0.322905 
657.726256  	0.319961 
659.655072  	0.316436 
661.583888  	0.312608 
663.512704  	0.308374 
665.441520  	0.304450 
667.370336  	0.299881 
669.299152  	0.296013 
671.227968  	0.294333 
673.156784  	0.292185 
675.085600  	0.289835 
677.014416  	0.287860 
678.943232  	0.286292 
680.872048  	0.284315 
682.800864  	0.282371 
684.729680  	0.281294 
686.658496  	0.279301 
688.587312  	0.277364 
690.516128  	0.275696 
692.444944  	0.274252 
694.373760  	0.272699 
696.302576  	0.271155 
698.231392  	0.268968 
700.160208  	0.266316 
702.089024  	0.263688 
704.017840  	0.262133 
705.946656  	0.259659 
707.875472  	0.256957 
709.804288  	0.254884 
711.733104  	0.253708 
713.661920  	0.252363 
715.590736  	0.251389 
717.519552  	0.250887 
719.448368  	0.251445 
721.377184  	0.252579 
723.306000  	0.252961 
725.234816  	0.252884 
727.163632  	0.251853 
729.092448  	0.249383 
731.021264  	0.246759 
732.950080  	0.243993 
734.878896  	0.241068 
736.807712  	0.238462 
738.736528  	0.236553 
740.665344  	0.235068 
742.594160  	0.233979 
744.522976  	0.232384 
746.451792  	0.230821 
748.380608  	0.230026 
750.309424  	0.229803 
752.238240  	0.229250 
754.167056  	0.228674 
756.095872  	0.227971 
758.024688  	0.227113 
759.953504  	0.226480 
761.882320  	0.226533 
763.811136  	0.226957 
765.739952  	0.226541 
767.668768  	0.225150 
769.597584  	0.223888 
771.526400  	0.223638 
773.455216  	0.225548 
775.384032  	0.228601 
777.312848  	0.232293 
779.241664  	0.236318 
781.170480  	0.237619 
783.099296  	0.234561 
785.028112  	0.229363 
786.956928  	0.223551 
788.885744  	0.218506 
790.814560  	0.214510 
792.743376  	0.212141 
794.672192  	0.210771 
796.601008  	0.210181 
798.529824  	0.208416 
800.458640  	0.205012 
802.387456  	0.201274 
804.316272  	0.199492 
806.245088  	0.198950 
808.173904  	0.198695 
810.102720  	0.198798 
812.031536  	0.199009 
813.960352  	0.198966 
815.889168  	0.199055 
817.817984  	0.198966 
819.746800  	0.198926 
821.675616  	0.198838 
823.604432  	0.198597 
825.533248  	0.197695 
827.462064  	0.196586 
829.390880  	0.195365 
831.319696  	0.194065 
833.248512  	0.192695 
835.177328  	0.191064 
837.106144  	0.188617 
839.034960  	0.185573 
840.963776  	0.182440 
842.892592  	0.179772 
844.821408  	0.176860 
846.750224  	0.174272 
848.679040  	0.172527 
850.607856  	0.170701 
852.536672  	0.169039 
854.465488  	0.167467 
856.394304  	0.166210 
858.323120  	0.165156 
860.251936  	0.163798 
862.180752  	0.162206 
864.109568  	0.160807 
866.038384  	0.159290 
867.967200  	0.157514 
869.896016  	0.156141 
871.824832  	0.155150 
873.753648  	0.154722 
875.682464  	0.154888 
877.611280  	0.155585 
879.540096  	0.156113 
881.468912  	0.156569 
883.397728  	0.157145 
885.326544  	0.157449 
887.255360  	0.157341 
889.184176  	0.156805 
891.112992  	0.155856 
893.041808  	0.154018 
894.970624  	0.151852 
896.899440  	0.149177 
898.828256  	0.145560 
900.757072  	0.142125 
902.685888  	0.139112 
904.614704  	0.137249 
906.543520  	0.136673 
908.472336  	0.137569 
910.401152  	0.139480 
912.329968  	0.142038 
914.258784  	0.144843 
916.187600  	0.147556 
918.116416  	0.149553 
920.045232  	0.150431 
921.974048  	0.150009 
923.902864  	0.149047 
925.831680  	0.147872 
927.760496  	0.146803 
929.689312  	0.145789 
931.618128  	0.145590 
933.546944  	0.145834 
935.475760  	0.145923 
937.404576  	0.146124 
939.333392  	0.146939 
941.262208  	0.148262 
943.191024  	0.150505 
945.119840  	0.154295 
947.048656  	0.159114 
948.977472  	0.165358 
950.906288  	0.172681 
952.835104  	0.180216 
954.763920  	0.187679 
956.692736  	0.194783 
958.621552  	0.200812 
960.550368  	0.204735 
962.479184  	0.206178 
964.408000  	0.204496 
966.336816  	0.200464 
968.265632  	0.193866 
970.194448  	0.185415 
972.123264  	0.175712 
974.052080  	0.165356 
975.980896  	0.155221 
977.909712  	0.145819 
979.838528  	0.137928 
981.767344  	0.131612 
983.696160  	0.127373 
985.624976  	0.125421 
987.553792  	0.125948 
989.482608  	0.128467 
991.411424  	0.132758 
993.340240  	0.138856 
995.269056  	0.146243 
997.197872  	0.153911 
999.126688  	0.161365 
1001.055504  	0.168971 
1002.984320  	0.176466 
1004.913136  	0.183764 
1006.841952  	0.190078 
1008.770768  	0.195681 
1010.699584  	0.200105 
1012.628400  	0.203291 
1014.557216  	0.205519 
1016.486032  	0.207028 
1018.414848  	0.207939 
1020.343664  	0.208932 
1022.272480  	0.209678 
1024.201296  	0.210265 
1026.130112  	0.211243 
1028.058928  	0.212694 
1029.987744  	0.213673 
1031.916560  	0.215974 
1033.845376  	0.219427 
1035.774192  	0.223701 
1037.703008  	0.228669 
1039.631824  	0.235074 
1041.560640  	0.243061 
1043.489456  	0.253405 
1045.418272  	0.265642 
1047.347088  	0.280016 
1049.275904  	0.294833 
1051.204720  	0.309315 
1053.133536  	0.321224 
1055.062352  	0.330008 
1056.991168  	0.335443 
1058.919984  	0.338192 
1060.848800  	0.337570 
1062.777616  	0.336759 
1064.706432  	0.334711 
1066.635248  	0.330869 
1068.564064  	0.324100 
1070.492880  	0.317547 
1072.421696  	0.311057 
1074.350512  	0.305389 
1076.279328  	0.300146 
1078.208144  	0.296261 
1080.136960  	0.292850 
1082.065776  	0.289867 
1083.994592  	0.286528 
1085.923408  	0.282875 
1087.852224  	0.278231 
1089.781040  	0.272567 
1091.709856  	0.265094 
1093.638672  	0.257037 
1095.567488  	0.247326 
1097.496304  	0.237090 
1099.425120  	0.226287 
1101.353936  	0.215649 
1103.282752  	0.204621 
1105.211568  	0.193480 
1107.140384  	0.182383 
1109.069200  	0.171610 
1110.998016  	0.161386 
1112.926832  	0.151856 
1114.855648  	0.142955 
1116.784464  	0.134171 
1118.713280  	0.126167 
1120.642096  	0.119068 
1122.570912  	0.112348 
1124.499728  	0.106112 
1126.428544  	0.100423 
1128.357360  	0.095162 
1130.286176  	0.090439 
1132.214992  	0.086331 
1134.143808  	0.082675 
1136.072624  	0.079546 
1138.001440  	0.076507 
1139.930256  	0.073320 
1141.859072  	0.070663 
1143.787888  	0.068076 
1145.716704  	0.065834 
1147.645520  	0.064271 
1149.574336  	0.063205 
1151.503152  	0.062455 
1153.431968  	0.062178 
1155.360784  	0.062069 
1157.289600  	0.062369 
1159.218416  	0.063184 
1161.147232  	0.064674 
1163.076048  	0.066209 
1165.004864  	0.067778 
1166.933680  	0.069383 
1168.862496  	0.071522 
1170.791312  	0.074053 
1172.720128  	0.076508 
1174.648944  	0.078901 
1176.577760  	0.081453 
1178.506576  	0.084001 
1180.435392  	0.086599 
1182.364208  	0.089210 
1184.293024  	0.091978 
1186.221840  	0.094787 
1188.150656  	0.098145 
1190.079472  	0.102115 
1192.008288  	0.106594 
1193.937104  	0.111974 
1195.865920  	0.118081 
1197.794736  	0.124652 
1199.723552  	0.131685 
1201.652368  	0.138997 
1203.581184  	0.146610 
1205.510000  	0.154080 
1207.438816  	0.161706 
1209.367632  	0.169246 
1211.296448  	0.176115 
1213.225264  	0.182352 
1215.154080  	0.187671 
1217.082896  	0.192181 
1219.011712  	0.195625 
1220.940528  	0.199001 
1222.869344  	0.201490 
1224.798160  	0.203465 
1226.726976  	0.204578 
1228.655792  	0.205132 
1230.584608  	0.204960 
1232.513424  	0.203877 
1234.442240  	0.201281 
1236.371056  	0.197970 
1238.299872  	0.193797 
1240.228688  	0.189279 
1242.157504  	0.183524 
1244.086320  	0.176851 
1246.015136  	0.169978 
1247.943952  	0.163225 
1249.872768  	0.156262 
1251.801584  	0.149092 
1253.730400  	0.141978 
1255.659216  	0.135180 
1257.588032  	0.128542 
1259.516848  	0.122221 
1261.445664  	0.116431 
1263.374480  	0.111146 
1265.303296  	0.106213 
1267.232112  	0.102105 
1269.160928  	0.098918 
1271.089744  	0.096665 
1273.018560  	0.095433 
1274.947376  	0.094820 
1276.876192  	0.094318 
1278.805008  	0.093419 
1280.733824  	0.091749 
1282.662640  	0.088911 
1284.591456  	0.085250 
1286.520272  	0.081607 
1288.449088  	0.078661 
1290.377904  	0.076459 
1292.306720  	0.074745 
1294.235536  	0.072646 
1296.164352  	0.069605 
1298.093168  	0.066065 
1300.021984  	0.062602 
1301.950800  	0.059303 
1303.879616  	0.056482 
1305.808432  	0.054126 
1307.737248  	0.052142 
1309.666064  	0.050410 
1311.594880  	0.049210 
1313.523696  	0.048497 
1315.452512  	0.048200 
1317.381328  	0.048363 
1319.310144  	0.049074 
1321.238960  	0.049985 
1323.167776  	0.050947 
1325.096592  	0.051592 
1327.025408  	0.051858 
1328.954224  	0.051469 
1330.883040  	0.050729 
1332.811856  	0.049725 
1334.740672  	0.048641 
1336.669488  	0.047468 
1338.598304  	0.046726 
1340.527120  	0.046450 
1342.455936  	0.046278 
1344.384752  	0.046312 
1346.313568  	0.047001 
1348.242384  	0.048157 
1350.171200  	0.049836 
1352.100016  	0.051786 
1354.028832  	0.053822 
1355.957648  	0.056197 
1357.886464  	0.058523 
1359.815280  	0.060108 
1361.744096  	0.061587 
1363.672912  	0.063896 
1365.601728  	0.065631 
1367.530544  	0.066425 
1369.459360  	0.067044 
1371.388176  	0.066788 
1373.316992  	0.065520 
1375.245808  	0.064383 
1377.174624  	0.063077 
1379.103440  	0.061288 
1381.032256  	0.059612 
1382.961072  	0.058168 
1384.889888  	0.056622 
1386.818704  	0.055021 
1388.747520  	0.054026 
1390.676336  	0.052989 
1392.605152  	0.052138 
1394.533968  	0.051371 
1396.462784  	0.050654 
1398.391600  	0.050531 
1400.320416  	0.052022 
1402.249232  	0.053057 
1404.178048  	0.054173 
1406.106864  	0.055962 
1408.035680  	0.057723 
1409.964496  	0.059185 
1411.893312  	0.060931 
1413.822128  	0.062370 
1415.750944  	0.062961 
1417.679760  	0.062382 
1419.608576  	0.062712 
1421.537392  	0.062714 
1423.466208  	0.061471 
1425.395024  	0.060219 
1427.323840  	0.058353 
1429.252656  	0.056185 
1431.181472  	0.055017 
1433.110288  	0.054342 
1435.039104  	0.053528 
1436.967920  	0.054274 
1438.896736  	0.055917 
1440.825552  	0.056585 
1442.754368  	0.057129 
1444.683184  	0.057032 
1446.612000  	0.056749 
1448.540816  	0.057198 
1450.469632  	0.057792 
1452.398448  	0.057634 
1454.327264  	0.056619 
1456.256080  	0.055175 
1458.184896  	0.056704 
1460.113712  	0.058072 
1462.042528  	0.058349 
1463.971344  	0.058281 
1465.900160  	0.060585 
1467.828976  	0.062746 
1469.757792  	0.064428 
1471.686608  	0.066502 
1473.615424  	0.072089 
1475.544240  	0.076317 
1477.473056  	0.079939 
1479.401872  	0.081597 
1481.330688  	0.082416 
1483.259504  	0.082744 
1485.188320  	0.081813 
1487.117136  	0.079583 
1489.045952  	0.077248 
1490.974768  	0.075112 
1492.903584  	0.072492 
1494.832400  	0.068235 
1496.761216  	0.063825 
1498.690032  	0.060480 
1500.618848  	0.057940 
1502.547664  	0.055032 
1504.476480  	0.051199 
1506.405296  	0.047299 
1508.334112  	0.047867 
1510.262928  	0.047726 
1512.191744  	0.046928 
1514.120560  	0.045652 
1516.049376  	0.044753 
1517.978192  	0.045689 
1519.907008  	0.046213 
1521.835824  	0.048857 
1523.764640  	0.052296 
1525.693456  	0.054817 
1527.622272  	0.057623 
1529.551088  	0.059049 
1531.479904  	0.058550 
1533.408720  	0.057660 
1535.337536  	0.057405 
1537.266352  	0.054262 
1539.195168  	0.049477 
1541.123984  	0.047527 
1543.052800  	0.047566 
1544.981616  	0.047213 
1546.910432  	0.046822 
1548.839248  	0.045508 
1550.768064  	0.045550 
1552.696880  	0.045227 
1554.625696  	0.045460 
1556.554512  	0.044333 
1558.483328  	0.043593 
1560.412144  	0.050978 
1562.340960  	0.054283 
1564.269776  	0.056349 
1566.198592  	0.060224 
1568.127408  	0.062809 
1570.056224  	0.068408 
1571.985040  	0.073469 
1573.913856  	0.075161 
1575.842672  	0.076532 
1577.771488  	0.079810 
1579.700304  	0.080079 
1581.629120  	0.079958 
1583.557936  	0.080055 
1585.486752  	0.081583 
1587.415568  	0.084196 
1589.344384  	0.088337 
1591.273200  	0.093301 
1593.202016  	0.099161 
1595.130832  	0.104778 
1597.059648  	0.110599 
1598.988464  	0.114977 
1600.917280  	0.118386 
1602.846096  	0.120264 
1604.774912  	0.121431 
1606.703728  	0.121103 
1608.632544  	0.120564 
1610.561360  	0.119660 
1612.490176  	0.119253 
1614.418992  	0.118093 
1616.347808  	0.118951 
1618.276624  	0.123077 
1620.205440  	0.126873 
1622.134256  	0.130352 
1624.063072  	0.137872 
1625.991888  	0.144730 
1627.920704  	0.152318 
1629.849520  	0.160755 
1631.778336  	0.167855 
1633.707152  	0.172612 
1635.635968  	0.179852 
1637.564784  	0.188753 
1639.493600  	0.193947 
1641.422416  	0.197749 
1643.351232  	0.200085 
1645.280048  	0.199964 
1647.208864  	0.200848 
1649.137680  	0.201642 
1651.066496  	0.199379 
1652.995312  	0.195667 
1654.924128  	0.197689 
1656.852944  	0.196702 
1658.781760  	0.194793 
1660.710576  	0.192124 
1662.639392  	0.189501 
1664.568208  	0.187839 
1666.497024  	0.185526 
1668.425840  	0.181725 
1670.354656  	0.179623 
1672.283472  	0.178902 
1674.212288  	0.177626 
1676.141104  	0.177582 
1678.069920  	0.177655 
1679.998736  	0.177071 
1681.927552  	0.175824 
1683.856368  	0.174253 
1685.785184  	0.176649 
1687.714000  	0.176061 
1689.642816  	0.174839 
1691.571632  	0.173239 
1693.500448  	0.170220 
1695.429264  	0.165773 
1697.358080  	0.162142 
1699.286896  	0.157763 
1701.215712  	0.153696 
1703.144528  	0.150173 
1705.073344  	0.144997 
1707.002160  	0.140111 
1708.930976  	0.135396 
1710.859792  	0.129702 
1712.788608  	0.122957 
1714.717424  	0.115425 
1716.646240  	0.107508 
1718.575056  	0.100754 
1720.503872  	0.094804 
1722.432688  	0.088562 
1724.361504  	0.081593 
1726.290320  	0.075210 
1728.219136  	0.068620 
1730.147952  	0.062485 
1732.076768  	0.056462 
1734.005584  	0.051184 
1735.934400  	0.047194 
1737.863216  	0.043259 
1739.792032  	0.038594 
1741.720848  	0.035410 
1743.649664  	0.032161 
1745.578480  	0.029179 
1747.507296  	0.025924 
1749.436112  	0.024067 
1751.364928  	0.023329 
1753.293744  	0.022791 
1755.222560  	0.020948 
1757.151376  	0.020186 
1759.080192  	0.019061 
1761.009008  	0.018182 
1762.937824  	0.018076 
1764.866640  	0.017752 
1766.795456  	0.016549 
1768.724272  	0.016129 
1770.653088  	0.014293 
1772.581904  	0.014438 
1774.510720  	0.015370 
1776.439536  	0.015506 
1778.368352  	0.014987 
1780.297168  	0.014743 
1782.225984  	0.014658 
1784.154800  	0.014600 
1786.083616  	0.014690 
1788.012432  	0.014353 
1789.941248  	0.012985 
1791.870064  	0.012578 
1793.798880  	0.013226 
1795.727696  	0.013605 
1797.656512  	0.013138 
1799.585328  	0.012603 
1801.514144  	0.012567 
1803.442960  	0.012936 
1805.371776  	0.012799 
1807.300592  	0.012431 
1809.229408  	0.011778 
1811.158224  	0.012000 
1813.087040  	0.012161 
1815.015856  	0.012002 
1816.944672  	0.011766 
1818.873488  	0.012117 
1820.802304  	0.012100 
1822.731120  	0.011691 
1824.659936  	0.010964 
1826.588752  	0.011260 
1828.517568  	0.010618 
1830.446384  	0.011244 
1832.375200  	0.011789 
1834.304016  	0.011681 
1836.232832  	0.011483 
1838.161648  	0.011833 
1840.090464  	0.011583 
1842.019280  	0.010383 
1843.948096  	0.009955 
1845.876912  	0.011191 
1847.805728  	0.011262 
1849.734544  	0.011482 
1851.663360  	0.011263 
1853.592176  	0.011570 
1855.520992  	0.011534 
1857.449808  	0.011576 
1859.378624  	0.011430 
1861.307440  	0.011609 
1863.236256  	0.011017 
1865.165072  	0.010627 
1867.093888  	0.009987 
1869.022704  	0.010686 
1870.951520  	0.011273 
1872.880336  	0.011460 
1874.809152  	0.011033 
1876.737968  	0.010963 
1878.666784  	0.010674 
1880.595600  	0.010904 
1882.524416  	0.010882 
1884.453232  	0.010914 
1886.382048  	0.010336 
1888.310864  	0.010126 
1890.239680  	0.010828 
1892.168496  	0.011316 
1894.097312  	0.010798 
1896.026128  	0.011270 
1897.954944  	0.010927 
1899.883760  	0.010853 
1901.812576  	0.010731 
1903.741392  	0.010755 
1905.670208  	0.010416 
1907.599024  	0.010309 
1909.527840  	0.010116 
1911.456656  	0.010765 
1913.385472  	0.011035 
1915.314288  	0.011305 
1917.243104  	0.010804 
1919.171920  	0.010555 
1921.100736  	0.010329 
1923.029552  	0.011026 
1924.958368  	0.010927 
1926.887184  	0.010915 
1928.816000  	0.010242 
1930.744816  	0.010011 
1932.673632  	0.009929 
1934.602448  	0.010720 
1936.531264  	0.010716 
1938.460080  	0.010739 
1940.388896  	0.010280 
1942.317712  	0.009887 
1944.246528  	0.009821 
1946.175344  	0.010421 
1948.104160  	0.009850 
1950.032976  	0.010237 
1951.961792  	0.010523 
1953.890608  	0.010517 
1955.819424  	0.009707 
1957.748240  	0.010248 
1959.677056  	0.010367 
1961.605872  	0.010087 
1963.534688  	0.009926 
1965.463504  	0.011179 
1967.392320  	0.010498 
1969.321136  	0.010239 
1971.249952  	0.011044 
1973.178768  	0.012113 
1975.107584  	0.010180 
1977.036400  	0.010032 
1978.965216  	0.012550 
1980.894032  	0.013363 
1982.822848  	0.011143 
1984.751664  	0.010866 
1986.680480  	0.010743 
1988.609296  	0.011024 
1990.538112  	0.011168 
1992.466928  	0.012172 
1994.395744  	0.011598 
1996.324560  	0.011482 
1998.253376  	0.011002 
2000.182192  	0.011030 
2002.111008  	0.010361 
2004.039824  	0.010366 
2005.968640  	0.010284 
2007.897456  	0.010911 
2009.826272  	0.010281 
2011.755088  	0.010292 
2013.683904  	0.010883 
2015.612720  	0.012312 
2017.541536  	0.011496 
2019.470352  	0.011844 
2021.399168  	0.012321 
2023.327984  	0.012494 
2025.256800  	0.011424 
2027.185616  	0.011203 
2029.114432  	0.009726 
2031.043248  	0.010520 
2032.972064  	0.011006 
2034.900880  	0.011675 
2036.829696  	0.011639 
2038.758512  	0.012193 
2040.687328  	0.011620 
2042.616144  	0.010570 
2044.544960  	0.010458 
2046.473776  	0.011386 
2048.402592  	0.012155 
2050.331408  	0.013716 
2052.260224  	0.012651 
2054.189040  	0.011916 
2056.117856  	0.011077 
2058.046672  	0.011343 
2059.975488  	0.011700 
2061.904304  	0.011851 
2063.833120  	0.012370 
2065.761936  	0.013115 
2067.690752  	0.012434 
2069.619568  	0.011725 
2071.548384  	0.011138 
2073.477200  	0.011854 
2075.406016  	0.012907 
2077.334832  	0.013093 
2079.263648  	0.012215 
2081.192464  	0.012351 
2083.121280  	0.012804 
2085.050096  	0.012722 
2086.978912  	0.012277 
2088.907728  	0.012299 
2090.836544  	0.011902 
2092.765360  	0.011731 
2094.694176  	0.011782 
2096.622992  	0.012092 
2098.551808  	0.011826 
2100.480624  	0.012022 
2102.409440  	0.011987 
2104.338256  	0.012393 
2106.267072  	0.012689 
2108.195888  	0.012876 
2110.124704  	0.013384 
2112.053520  	0.013905 
2113.982336  	0.013428 
2115.911152  	0.013334 
2117.839968  	0.012853 
2119.768784  	0.012516 
2121.697600  	0.012253 
2123.626416  	0.011784 
2125.555232  	0.011500 
2127.484048  	0.011789 
2129.412864  	0.011425 
2131.341680  	0.010977 
2133.270496  	0.011410 
2135.199312  	0.012008 
2137.128128  	0.011971 
2139.056944  	0.011973 
2140.985760  	0.011019 
2142.914576  	0.011726 
2144.843392  	0.011859 
2146.772208  	0.012559 
2148.701024  	0.013061 
2150.629840  	0.012942 
2152.558656  	0.011157 
2154.487472  	0.011270 
2156.416288  	0.010323 
2158.345104  	0.012425 
2160.273920  	0.016667 
2162.202736  	0.017367 
2164.131552  	0.015493 
2166.060368  	0.016366 
2167.989184  	0.015653 
2169.918000  	0.014336 
2171.846816  	0.013799 
2173.775632  	0.014377 
2175.704448  	0.014959 
2177.633264  	0.015461 
2179.562080  	0.015274 
2181.490896  	0.015017 
2183.419712  	0.014496 
2185.348528  	0.014789 
2187.277344  	0.015022 
2189.206160  	0.015071 
2191.134976  	0.014971 
2193.063792  	0.015691 
2194.992608  	0.016218 
2196.921424  	0.015288 
2198.850240  	0.014831 
2200.779056  	0.015019 
2202.707872  	0.014789 
2204.636688  	0.014719 
2206.565504  	0.014931 
2208.494320  	0.015100 
2210.423136  	0.013938 
2212.351952  	0.013505 
2214.280768  	0.013837 
2216.209584  	0.014040 
2218.138400  	0.014403 
2220.067216  	0.014579 
2221.996032  	0.014265 
2223.924848  	0.013556 
2225.853664  	0.013640 
2227.782480  	0.014329 
2229.711296  	0.014340 
2231.640112  	0.014114 
2233.568928  	0.013705 
2235.497744  	0.013637 
2237.426560  	0.013192 
2239.355376  	0.013440 
2241.284192  	0.013198 
2243.213008  	0.013346 
2245.141824  	0.013557 
2247.070640  	0.013088 
2248.999456  	0.012872 
2250.928272  	0.013423 
2252.857088  	0.013191 
2254.785904  	0.013197 
2256.714720  	0.013965 
2258.643536  	0.014432 
2260.572352  	0.013843 
2262.501168  	0.014120 
2264.429984  	0.014488 
2266.358800  	0.014925 
2268.287616  	0.015014 
2270.216432  	0.014912 
2272.145248  	0.014449 
2274.074064  	0.014583 
2276.002880  	0.014887 
2277.931696  	0.015427 
2279.860512  	0.015660 
2281.789328  	0.015852 
2283.718144  	0.015354 
2285.646960  	0.015259 
2287.575776  	0.015446 
2289.504592  	0.015336 
2291.433408  	0.015039 
2293.362224  	0.015064 
2295.291040  	0.015040 
2297.219856  	0.015040 
2299.148672  	0.014966 
2301.077488  	0.014957 
2303.006304  	0.014998 
2304.935120  	0.014801 
2306.863936  	0.014597 
2308.792752  	0.014721 
2310.721568  	0.014974 
2312.650384  	0.015035 
2314.579200  	0.014785 
2316.508016  	0.014690 
2318.436832  	0.014228 
2320.365648  	0.013954 
2322.294464  	0.014236 
2324.223280  	0.014163 
2326.152096  	0.012765 
2328.080912  	0.011641 
2330.009728  	0.011436 
2331.938544  	0.011614 
2333.867360  	0.011267 
2335.796176  	0.010989 
2337.724992  	0.010642 
2339.653808  	0.010512 
2341.582624  	0.010650 
2343.511440  	0.011611 
2345.440256  	0.012796 
2347.369072  	0.013416 
2349.297888  	0.012440 
2351.226704  	0.011119 
2353.155520  	0.010383 
2355.084336  	0.009660 
2357.013152  	0.009170 
2358.941968  	0.009214 
2360.870784  	0.009142 
2362.799600  	0.009694 
2364.728416  	0.010421 
2366.657232  	0.010812 
2368.586048  	0.011234 
2370.514864  	0.012190 
2372.443680  	0.013109 
2374.372496  	0.014045 
2376.301312  	0.014550 
2378.230128  	0.015020 
2380.158944  	0.015025 
2382.087760  	0.014876 
2384.016576  	0.014883 
2385.945392  	0.015020 
2387.874208  	0.014781 
2389.803024  	0.014506 
2391.731840  	0.014486 
2393.660656  	0.014598 
2395.589472  	0.014705 
2397.518288  	0.014955 
2399.447104  	0.015017 
2401.375920  	0.014793 
2403.304736  	0.014754 
2405.233552  	0.014980 
2407.162368  	0.015275 
2409.091184  	0.015230 
2411.020000  	0.015118 
2412.948816  	0.015541 
2414.877632  	0.015690 
2416.806448  	0.015785 
2418.735264  	0.015848 
2420.664080  	0.015692 
2422.592896  	0.015374 
2424.521712  	0.015544 
2426.450528  	0.015752 
2428.379344  	0.015644 
2430.308160  	0.015608 
2432.236976  	0.015717 
2434.165792  	0.015994 
2436.094608  	0.016414 
2438.023424  	0.016528 
2439.952240  	0.016603 
2441.881056  	0.016729 
2443.809872  	0.016744 
2445.738688  	0.016612 
2447.667504  	0.016790 
2449.596320  	0.016894 
2451.525136  	0.016875 
2453.453952  	0.017005 
2455.382768  	0.017369 
2457.311584  	0.017484 
2459.240400  	0.017437 
2461.169216  	0.017182 
2463.098032  	0.017058 
2465.026848  	0.017106 
2466.955664  	0.017069 
2468.884480  	0.016857 
2470.813296  	0.016996 
2472.742112  	0.017286 
2474.670928  	0.017496 
2476.599744  	0.017467 
2478.528560  	0.017455 
2480.457376  	0.017659 
2482.386192  	0.017812 
2484.315008  	0.017901 
2486.243824  	0.018027 
2488.172640  	0.017911 
2490.101456  	0.018054 
2492.030272  	0.018210 
2493.959088  	0.018126 
2495.887904  	0.018025 
2497.816720  	0.018276 
2499.745536  	0.018434 
2501.674352  	0.018461 
2503.603168  	0.018337 
2505.531984  	0.018414 
2507.460800  	0.018454 
2509.389616  	0.018459 
2511.318432  	0.018455 
2513.247248  	0.018647 
2515.176064  	0.018742 
2517.104880  	0.019076 
2519.033696  	0.019266 
2520.962512  	0.019288 
2522.891328  	0.019398 
2524.820144  	0.019405 
2526.748960  	0.019503 
2528.677776  	0.019730 
2530.606592  	0.019663 
2532.535408  	0.019649 
2534.464224  	0.019811 
2536.393040  	0.019955 
2538.321856  	0.019826 
2540.250672  	0.019804 
2542.179488  	0.019876 
2544.108304  	0.020164 
2546.037120  	0.020345 
2547.965936  	0.020657 
2549.894752  	0.020784 
2551.823568  	0.020749 
2553.752384  	0.020633 
2555.681200  	0.020830 
2557.610016  	0.020939 
2559.538832  	0.020968 
2561.467648  	0.021070 
2563.396464  	0.021271 
2565.325280  	0.021441 
2567.254096  	0.021595 
2569.182912  	0.021491 
2571.111728  	0.021408 
2573.040544  	0.021241 
2574.969360  	0.021228 
2576.898176  	0.021508 
2578.826992  	0.021907 
2580.755808  	0.021797 
2582.684624  	0.021747 
2584.613440  	0.021837 
2586.542256  	0.021991 
2588.471072  	0.022169 
2590.399888  	0.022238 
2592.328704  	0.022230 
2594.257520  	0.022345 
2596.186336  	0.022847 
2598.115152  	0.022993 
2600.043968  	0.022700 
2601.972784  	0.022739 
2603.901600  	0.023008 
2605.830416  	0.023118 
2607.759232  	0.023009 
2609.688048  	0.023086 
2611.616864  	0.023167 
2613.545680  	0.023304 
2615.474496  	0.023432 
2617.403312  	0.023515 
2619.332128  	0.023661 
2621.260944  	0.023738 
2623.189760  	0.023820 
2625.118576  	0.023913 
2627.047392  	0.023993 
2628.976208  	0.024350 
2630.905024  	0.024494 
2632.833840  	0.024702 
2634.762656  	0.024879 
2636.691472  	0.024816 
2638.620288  	0.024869 
2640.549104  	0.025098 
2642.477920  	0.025132 
2644.406736  	0.025171 
2646.335552  	0.025438 
2648.264368  	0.025663 
2650.193184  	0.025812 
2652.122000  	0.025976 
2654.050816  	0.026072 
2655.979632  	0.026030 
2657.908448  	0.026072 
2659.837264  	0.026216 
2661.766080  	0.026225 
2663.694896  	0.026307 
2665.623712  	0.026316 
2667.552528  	0.026261 
2669.481344  	0.026384 
2671.410160  	0.026651 
2673.338976  	0.026829 
2675.267792  	0.026922 
2677.196608  	0.026999 
2679.125424  	0.027145 
2681.054240  	0.027205 
2682.983056  	0.027349 
2684.911872  	0.027546 
2686.840688  	0.027675 
2688.769504  	0.027767 
2690.698320  	0.027900 
2692.627136  	0.028051 
2694.555952  	0.028131 
2696.484768  	0.028113 
2698.413584  	0.028282 
2700.342400  	0.028428 
2702.271216  	0.028613 
2704.200032  	0.028897 
2706.128848  	0.029043 
2708.057664  	0.029132 
2709.986480  	0.029212 
2711.915296  	0.029343 
2713.844112  	0.029468 
2715.772928  	0.029631 
2717.701744  	0.029867 
2719.630560  	0.030006 
2721.559376  	0.030075 
2723.488192  	0.030106 
2725.417008  	0.030359 
2727.345824  	0.030589 
2729.274640  	0.030635 
2731.203456  	0.030685 
2733.132272  	0.030845 
2735.061088  	0.031026 
2736.989904  	0.031175 
2738.918720  	0.031258 
2740.847536  	0.031256 
2742.776352  	0.031415 
2744.705168  	0.031669 
2746.633984  	0.031727 
2748.562800  	0.031842 
2750.491616  	0.031956 
2752.420432  	0.031946 
2754.349248  	0.032070 
2756.278064  	0.032222 
2758.206880  	0.032212 
2760.135696  	0.032405 
2762.064512  	0.032411 
2763.993328  	0.032316 
2765.922144  	0.032423 
2767.850960  	0.032563 
2769.779776  	0.032616 
2771.708592  	0.032676 
2773.637408  	0.032691 
2775.566224  	0.032826 
2777.495040  	0.032888 
2779.423856  	0.032988 
2781.352672  	0.033156 
2783.281488  	0.033267 
2785.210304  	0.033275 
2787.139120  	0.033410 
2789.067936  	0.033564 
2790.996752  	0.033700 
2792.925568  	0.033849 
2794.854384  	0.033905 
2796.783200  	0.033964 
2798.712016  	0.034014 
2800.640832  	0.034119 
2802.569648  	0.034311 
2804.498464  	0.034449 
2806.427280  	0.034523 
2808.356096  	0.034668 
2810.284912  	0.034794 
2812.213728  	0.034783 
2814.142544  	0.034841 
2816.071360  	0.035054 
2818.000176  	0.035214 
2819.928992  	0.035221 
2821.857808  	0.035325 
2823.786624  	0.035520 
2825.715440  	0.035596 
2827.644256  	0.035501 
2829.573072  	0.035560 
2831.501888  	0.035516 
2833.430704  	0.035442 
2835.359520  	0.035397 
2837.288336  	0.035462 
2839.217152  	0.035672 
2841.145968  	0.035745 
2843.074784  	0.035776 
2845.003600  	0.035968 
2846.932416  	0.036259 
2848.861232  	0.036626 
2850.790048  	0.036871 
2852.718864  	0.036887 
2854.647680  	0.036941 
2856.576496  	0.037166 
2858.505312  	0.037404 
2860.434128  	0.037639 
2862.362944  	0.037792 
2864.291760  	0.037991 
2866.220576  	0.038299 
2868.149392  	0.038868 
2870.078208  	0.039422 
2872.007024  	0.039885 
2873.935840  	0.040456 
2875.864656  	0.041101 
2877.793472  	0.041987 
2879.722288  	0.042818 
2881.651104  	0.043251 
2883.579920  	0.043672 
2885.508736  	0.044176 
2887.437552  	0.044455 
2889.366368  	0.044681 
2891.295184  	0.044941 
2893.224000  	0.045115 
2895.152816  	0.045186 
2897.081632  	0.045101 
2899.010448  	0.045386 
2900.939264  	0.046032 
2902.868080  	0.046075 
2904.796896  	0.045968 
2906.725712  	0.046012 
2908.654528  	0.046182 
2910.583344  	0.046617 
2912.512160  	0.047253 
2914.440976  	0.047727 
2916.369792  	0.048117 
2918.298608  	0.048548 
2920.227424  	0.049029 
2922.156240  	0.049563 
2924.085056  	0.050075 
2926.013872  	0.050607 
2927.942688  	0.051184 
2929.871504  	0.051788 
2931.800320  	0.052429 
2933.729136  	0.052925 
2935.657952  	0.053226 
2937.586768  	0.053589 
2939.515584  	0.053790 
2941.444400  	0.054123 
2943.373216  	0.054542 
2945.302032  	0.054732 
2947.230848  	0.054833 
2949.159664  	0.054865 
2951.088480  	0.054978 
2953.017296  	0.055214 
2954.946112  	0.055192 
2956.874928  	0.055138 
2958.803744  	0.055066 
2960.732560  	0.055011 
2962.661376  	0.054999 
2964.590192  	0.054889 
2966.519008  	0.054837 
2968.447824  	0.054763 
2970.376640  	0.054701 
2972.305456  	0.054444 
2974.234272  	0.054146 
2976.163088  	0.053864 
2978.091904  	0.053555 
2980.020720  	0.053492 
2981.949536  	0.053383 
2983.878352  	0.053255 
2985.807168  	0.053147 
2987.735984  	0.053459 
2989.664800  	0.053547 
2991.593616  	0.052877 
2993.522432  	0.052461 
2995.451248  	0.052463 
2997.380064  	0.052397 
2999.308880  	0.052368 
3001.237696  	0.052191 
3003.166512  	0.052005 
3005.095328  	0.051901 
3007.024144  	0.051870 
3008.952960  	0.051876 
3010.881776  	0.051837 
3012.810592  	0.051889 
3014.739408  	0.051875 
3016.668224  	0.051937 
3018.597040  	0.051954 
3020.525856  	0.051767 
3022.454672  	0.051781 
3024.383488  	0.051950 
3026.312304  	0.052099 
3028.241120  	0.052022 
3030.169936  	0.051928 
3032.098752  	0.052262 
3034.027568  	0.052302 
3035.956384  	0.052275 
3037.885200  	0.052528 
3039.814016  	0.052827 
3041.742832  	0.053111 
3043.671648  	0.053296 
3045.600464  	0.053509 
3047.529280  	0.053835 
3049.458096  	0.054210 
3051.386912  	0.054298 
3053.315728  	0.054563 
3055.244544  	0.055077 
3057.173360  	0.055597 
3059.102176  	0.055903 
3061.030992  	0.056198 
3062.959808  	0.056553 
3064.888624  	0.057020 
3066.817440  	0.057614 
3068.746256  	0.058006 
3070.675072  	0.058315 
3072.603888  	0.058854 
3074.532704  	0.059382 
3076.461520  	0.059761 
3078.390336  	0.060059 
3080.319152  	0.060498 
3082.247968  	0.061125 
3084.176784  	0.061702 
3086.105600  	0.061952 
3088.034416  	0.062241 
3089.963232  	0.062851 
3091.892048  	0.063325 
3093.820864  	0.063655 
3095.749680  	0.064074 
3097.678496  	0.064326 
3099.607312  	0.064693 
3101.536128  	0.065188 
3103.464944  	0.065786 
3105.393760  	0.066260 
3107.322576  	0.066700 
3109.251392  	0.067164 
3111.180208  	0.067527 
3113.109024  	0.067724 
3115.037840  	0.067908 
3116.966656  	0.068206 
3118.895472  	0.068545 
3120.824288  	0.068838 
3122.753104  	0.069247 
3124.681920  	0.069597 
3126.610736  	0.069725 
3128.539552  	0.070033 
3130.468368  	0.070400 
3132.397184  	0.070593 
3134.326000  	0.070824 
3136.254816  	0.071101 
3138.183632  	0.071346 
3140.112448  	0.071532 
3142.041264  	0.071854 
3143.970080  	0.072171 
3145.898896  	0.072381 
3147.827712  	0.072617 
3149.756528  	0.073112 
3151.685344  	0.073593 
3153.614160  	0.073913 
3155.542976  	0.074163 
3157.471792  	0.074415 
3159.400608  	0.074891 
3161.329424  	0.075463 
3163.258240  	0.075907 
3165.187056  	0.076244 
3167.115872  	0.076507 
3169.044688  	0.076632 
3170.973504  	0.076600 
3172.902320  	0.076786 
3174.831136  	0.077240 
3176.759952  	0.077578 
3178.688768  	0.077791 
3180.617584  	0.078003 
3182.546400  	0.077922 
3184.475216  	0.078058 
3186.404032  	0.078334 
3188.332848  	0.078303 
3190.261664  	0.078449 
3192.190480  	0.078533 
3194.119296  	0.078362 
3196.048112  	0.078250 
3197.976928  	0.078550 
3199.905744  	0.078593 
3201.834560  	0.078554 
3203.763376  	0.078541 
3205.692192  	0.078399 
3207.621008  	0.078187 
3209.549824  	0.077948 
3211.478640  	0.077834 
3213.407456  	0.077670 
3215.336272  	0.077760 
3217.265088  	0.077644 
3219.193904  	0.077325 
3221.122720  	0.076912 
3223.051536  	0.076689 
3224.980352  	0.076437 
3226.909168  	0.076124 
3228.837984  	0.075958 
3230.766800  	0.076005 
3232.695616  	0.075942 
3234.624432  	0.075796 
3236.553248  	0.075786 
3238.482064  	0.075717 
3240.410880  	0.075476 
3242.339696  	0.075385 
3244.268512  	0.075367 
3246.197328  	0.075349 
3248.126144  	0.075369 
3250.054960  	0.075415 
3251.983776  	0.075356 
3253.912592  	0.075361 
3255.841408  	0.075462 
3257.770224  	0.075605 
3259.699040  	0.075767 
3261.627856  	0.075919 
3263.556672  	0.076104 
3265.485488  	0.076045 
3267.414304  	0.076093 
3269.343120  	0.076238 
3271.271936  	0.076379 
3273.200752  	0.076694 
3275.129568  	0.076844 
3277.058384  	0.076810 
3278.987200  	0.076882 
3280.916016  	0.077053 
3282.844832  	0.077108 
3284.773648  	0.077245 
3286.702464  	0.077406 
3288.631280  	0.077558 
3290.560096  	0.077698 
3292.488912  	0.077946 
3294.417728  	0.078155 
3296.346544  	0.078345 
3298.275360  	0.078593 
3300.204176  	0.078885 
3302.132992  	0.079002 
3304.061808  	0.079292 
3305.990624  	0.079557 
3307.919440  	0.079643 
3309.848256  	0.079795 
3311.777072  	0.080013 
3313.705888  	0.080345 
3315.634704  	0.080797 
3317.563520  	0.080996 
3319.492336  	0.081069 
3321.421152  	0.081266 
3323.349968  	0.081346 
3325.278784  	0.081388 
3327.207600  	0.081565 
3329.136416  	0.081581 
3331.065232  	0.081407 
3332.994048  	0.081434 
3334.922864  	0.081437 
3336.851680  	0.081449 
3338.780496  	0.081416 
3340.709312  	0.081330 
3342.638128  	0.081360 
3344.566944  	0.081180 
3346.495760  	0.080810 
3348.424576  	0.080648 
3350.353392  	0.080441 
3352.282208  	0.080142 
3354.211024  	0.080035 
3356.139840  	0.079901 
3358.068656  	0.079424 
3359.997472  	0.079008 
3361.926288  	0.078699 
3363.855104  	0.078295 
3365.783920  	0.078146 
3367.712736  	0.077920 
3369.641552  	0.077431 
3371.570368  	0.076922 
3373.499184  	0.076621 
3375.428000  	0.076191 
3377.356816  	0.075808 
3379.285632  	0.075557 
3381.214448  	0.075450 
3383.143264  	0.075193 
3385.072080  	0.075039 
3387.000896  	0.074643 
3388.929712  	0.074165 
3390.858528  	0.073641 
3392.787344  	0.073154 
3394.716160  	0.072741 
3396.644976  	0.072470 
3398.573792  	0.072253 
3400.502608  	0.071861 
3402.431424  	0.071265 
3404.360240  	0.070947 
3406.289056  	0.070607 
3408.217872  	0.070281 
3410.146688  	0.069948 
3412.075504  	0.069793 
3414.004320  	0.069534 
3415.933136  	0.069018 
3417.861952  	0.068468 
3419.790768  	0.068020 
3421.719584  	0.067698 
3423.648400  	0.067233 
3425.577216  	0.066920 
3427.506032  	0.066716 
3429.434848  	0.066212 
3431.363664  	0.065754 
3433.292480  	0.065346 
3435.221296  	0.064962 
3437.150112  	0.064557 
3439.078928  	0.064323 
3441.007744  	0.063958 
3442.936560  	0.063472 
3444.865376  	0.062720 
3446.794192  	0.061963 
3448.723008  	0.061726 
3450.651824  	0.061321 
3452.580640  	0.060795 
3454.509456  	0.060220 
3456.438272  	0.059759 
3458.367088  	0.059485 
3460.295904  	0.059131 
3462.224720  	0.058720 
3464.153536  	0.058010 
3466.082352  	0.057424 
3468.011168  	0.057199 
3469.939984  	0.056678 
3471.868800  	0.055984 
3473.797616  	0.055414 
3475.726432  	0.054795 
3477.655248  	0.054200 
3479.584064  	0.053524 
3481.512880  	0.053056 
3483.441696  	0.052624 
3485.370512  	0.051879 
3487.299328  	0.051313 
3489.228144  	0.050892 
3491.156960  	0.050241 
3493.085776  	0.049689 
3495.014592  	0.049186 
3496.943408  	0.048567 
3498.872224  	0.047949 
3500.801040  	0.047311 
3502.729856  	0.046755 
3504.658672  	0.046518 
3506.587488  	0.045766 
3508.516304  	0.045118 
3510.445120  	0.045132 
3512.373936  	0.044949 
3514.302752  	0.044490 
3516.231568  	0.043829 
3518.160384  	0.043238 
3520.089200  	0.042794 
3522.018016  	0.042260 
3523.946832  	0.042039 
3525.875648  	0.041491 
3527.804464  	0.040930 
3529.733280  	0.040808 
3531.662096  	0.040502 
3533.590912  	0.039859 
3535.519728  	0.039453 
3537.448544  	0.039487 
3539.377360  	0.039069 
3541.306176  	0.038154 
3543.234992  	0.037251 
3545.163808  	0.037117 
3547.092624  	0.037315 
3549.021440  	0.036789 
3550.950256  	0.036021 
3552.879072  	0.036026 
3554.807888  	0.035978 
3556.736704  	0.035358 
3558.665520  	0.034820 
3560.594336  	0.034478 
3562.523152  	0.033585 
3564.451968  	0.032245 
3566.380784  	0.031767 
3568.309600  	0.032997 
3570.238416  	0.032924 
3572.167232  	0.031835 
3574.096048  	0.031290 
3576.024864  	0.031069 
3577.953680  	0.030688 
3579.882496  	0.030062 
3581.811312  	0.029582 
3583.740128  	0.028554 
3585.668944  	0.027042 
3587.597760  	0.027346 
3589.526576  	0.028090 
3591.455392  	0.026801 
3593.384208  	0.025946 
3595.313024  	0.025754 
3597.241840  	0.025421 
3599.170656  	0.024600 
3601.099472  	0.024349 
3603.028288  	0.023968 
3604.957104  	0.022743 
3606.885920  	0.021522 
3608.814736  	0.021879 
3610.743552  	0.021198 
3612.672368  	0.020108 
3614.601184  	0.020016 
3616.530000  	0.018648 
3618.458816  	0.018105 
3620.387632  	0.019144 
3622.316448  	0.018791 
3624.245264  	0.017660 
3626.174080  	0.015418 
3628.102896  	0.014207 
3630.031712  	0.017332 
3631.960528  	0.016748 
3633.889344  	0.015876 
3635.818160  	0.015263 
3637.746976  	0.014676 
3639.675792  	0.014766 
3641.604608  	0.014367 
3643.533424  	0.013279 
3645.462240  	0.010858 
3647.391056  	0.009209 
3649.319872  	0.010478 
3651.248688  	0.013363 
3653.177504  	0.012615 
3655.106320  	0.011033 
3657.035136  	0.012105 
3658.963952  	0.011911 
3660.892768  	0.011109 
3662.821584  	0.010761 
3664.750400  	0.010288 
3666.679216  	0.008746 
3668.608032  	0.006893 
3670.536848  	0.008499 
3672.465664  	0.008169 
3674.394480  	0.005727 
3676.323296  	0.009036 
3678.252112  	0.009413 
3680.180928  	0.008865 
3682.109744  	0.008590 
3684.038560  	0.008012 
3685.967376  	0.006299 
3687.896192  	0.005444 
3689.825008  	0.007003 
3691.753824  	0.008157 
3693.682640  	0.007984 
3695.611456  	0.007211 
3697.540272  	0.007047 
3699.469088  	0.006119 
3701.397904  	0.006476 
3703.326720  	0.007463 
3705.255536  	0.006915 
3707.184352  	0.005585 
3709.113168  	0.004395 
3711.041984  	0.004812 
3712.970800  	0.006912 
3714.899616  	0.006982 
3716.828432  	0.005954 
3718.757248  	0.005398 
3720.686064  	0.005009 
3722.614880  	0.005284 
3724.543696  	0.005420 
3726.472512  	0.006015 
3728.401328  	0.005919 
3730.330144  	0.003739 
3732.258960  	0.002624 
3734.187776  	0.002922 
3736.116592  	0.005811 
3738.045408  	0.006450 
3739.974224  	0.004780 
3741.903040  	0.002874 
3743.831856  	0.003455 
3745.760672  	0.006701 
3747.689488  	0.003707 
3749.618304  	0.002859 
3751.547120  	0.005193 
3753.475936  	0.007422 
3755.404752  	0.006277 
3757.333568  	0.005266 
3759.262384  	0.005569 
3761.191200  	0.006855 
3763.120016  	0.006083 
3765.048832  	0.005659 
3766.977648  	0.005750 
3768.906464  	0.005337 
3770.835280  	0.006782 
3772.764096  	0.007179 
3774.692912  	0.006584 
3776.621728  	0.005602 
3778.550544  	0.005289 
3780.479360  	0.006605 
3782.408176  	0.006245 
3784.336992  	0.005796 
3786.265808  	0.006337 
3788.194624  	0.006590 
3790.123440  	0.006542 
3792.052256  	0.006494 
3793.981072  	0.005475 
3795.909888  	0.005184 
3797.838704  	0.005507 
3799.767520  	0.003641 
3801.696336  	0.005265 
3803.625152  	0.006278 
3805.553968  	0.004634 
3807.482784  	0.006493 
3809.411600  	0.007325 
3811.340416  	0.006601 
3813.269232  	0.005097 
3815.198048  	0.004233 
3817.126864  	0.005683 
3819.055680  	0.003728 
3820.984496  	0.004540 
3822.913312  	0.007247 
3824.842128  	0.005867 
3826.770944  	0.005647 
3828.699760  	0.005766 
3830.628576  	0.005061 
3832.557392  	0.005238 
3834.486208  	0.004477 
3836.415024  	0.003698 
3838.343840  	0.004889 
3840.272656  	0.005609 
3842.201472  	0.005603 
3844.130288  	0.006357 
3846.059104  	0.006673 
3847.987920  	0.005569 
3849.916736  	0.003665 
3851.845552  	0.001848 
3853.774368  	0.006335 
3855.703184  	0.008313 
3857.632000  	0.006637 
3859.560816  	0.005521 
3861.489632  	0.004733 
3863.418448  	0.004756 
3865.347264  	0.006066 
3867.276080  	0.005181 
3869.204896  	0.004612 
3871.133712  	0.006808 
3873.062528  	0.005830 
3874.991344  	0.006804 
3876.920160  	0.006237 
3878.848976  	0.004859 
3880.777792  	0.005914 
3882.706608  	0.005895 
3884.635424  	0.004931 
3886.564240  	0.006952 
3888.493056  	0.006065 
3890.421872  	0.005452 
3892.350688  	0.006864 
3894.279504  	0.006679 
3896.208320  	0.005550 
3898.137136  	0.004779 
3900.065952  	0.005054 
3901.994768  	0.005300 
3903.923584  	0.006176 
3905.852400  	0.007436 
3907.781216  	0.007263 
3909.710032  	0.006779 
3911.638848  	0.006514 
3913.567664  	0.006143 
3915.496480  	0.005720 
3917.425296  	0.006595 
3919.354112  	0.006955 
3921.282928  	0.006953 
3923.211744  	0.006462 
3925.140560  	0.006744 
3927.069376  	0.006752 
3928.998192  	0.006235 
3930.927008  	0.006241 
3932.855824  	0.006965 
3934.784640  	0.007173 
3936.713456  	0.007167 
3938.642272  	0.007001 
3940.571088  	0.006385 
3942.499904  	0.006741 
3944.428720  	0.007122 
3946.357536  	0.006536 
3948.286352  	0.006444 
3950.215168  	0.006578 
3952.143984  	0.006674 
3954.072800  	0.006699 
3956.001616  	0.006779 
3957.930432  	0.006971 
3959.859248  	0.007031 
3961.788064  	0.006960 
3963.716880  	0.006990 
3965.645696  	0.006897 
3967.574512  	0.007008 
3969.503328  	0.007111 
3971.432144  	0.006880 
3973.360960  	0.006774 
3975.289776  	0.007105 
3977.218592  	0.007364 
3979.147408  	0.007317 
3981.076224  	0.007005 
3983.005040  	0.006996 
3984.933856  	0.007039 
3986.862672  	0.007069 
3988.791488  	0.006958 
3990.720304  	0.007000 
3992.649120  	0.007029 
3994.577936  	0.006931 
3996.506752  	0.006830 
3998.435568  	0.006853 
4000.364384  	0.006967 