##TITLE=No Description
##DATA TYPE=INFRARED SPECTRUM
##XUNITS=1/CM
##YUNITS=Abs
399.264912  	0.603699 
401.193728  	0.574784 
403.122544  	0.577229 
405.051360  	0.585810 
406.980176  	0.582240 
408.908992  	0.560473 
410.837808  	0.560360 
412.766624  	0.555913 
414.695440  	0.555952 
416.624256  	0.547843 
418.553072  	0.548674 
420.481888  	0.549206 
422.410704  	0.543642 
424.339520  	0.534256 
426.268336  	0.541227 
428.197152  	0.531939 
430.125968  	0.528363 
432.054784  	0.524827 
433.983600  	0.524483 
435.912416  	0.516599 
437.841232  	0.515574 
439.770048  	0.513566 
441.698864  	0.512363 
443.627680  	0.509682 
445.556496  	0.512401 
447.485312  	0.508812 
449.414128  	0.508313 
451.342944  	0.504119 
453.271760  	0.500427 
455.200576  	0.496080 
457.129392  	0.495789 
459.058208  	0.497728 
460.987024  	0.505178 
462.915840  	0.504233 
464.844656  	0.503435 
466.773472  	0.502086 
468.702288  	0.502963 
470.631104  	0.500117 
472.559920  	0.504389 
474.488736  	0.499849 
476.417552  	0.499404 
478.346368  	0.499722 
480.275184  	0.498040 
482.204000  	0.495219 
484.132816  	0.497349 
486.061632  	0.494489 
487.990448  	0.493949 
489.919264  	0.491672 
491.848080  	0.493564 
493.776896  	0.491913 
495.705712  	0.492078 
497.634528  	0.490370 
499.563344  	0.490238 
501.492160  	0.487687 
503.420976  	0.486917 
505.349792  	0.483548 
507.278608  	0.484785 
509.207424  	0.483047 
511.136240  	0.485407 
513.065056  	0.489454 
514.993872  	0.489101 
516.922688  	0.485838 
518.851504  	0.488073 
520.780320  	0.487167 
522.709136  	0.489785 
524.637952  	0.489141 
526.566768  	0.486848 
528.495584  	0.482905 
530.424400  	0.480251 
532.353216  	0.478883 
534.282032  	0.476029 
536.210848  	0.471672 
538.139664  	0.468583 
540.068480  	0.464543 
541.997296  	0.459133 
543.926112  	0.453524 
545.854928  	0.451908 
547.783744  	0.448307 
549.712560  	0.443671 
551.641376  	0.438798 
553.570192  	0.436761 
555.499008  	0.433844 
557.427824  	0.431022 
559.356640  	0.427402 
561.285456  	0.424181 
563.214272  	0.420024 
565.143088  	0.416974 
567.071904  	0.412923 
569.000720  	0.409315 
570.929536  	0.405946 
572.858352  	0.403061 
574.787168  	0.399492 
576.715984  	0.396872 
578.644800  	0.393122 
580.573616  	0.390163 
582.502432  	0.386740 
584.431248  	0.384107 
586.360064  	0.381135 
588.288880  	0.379288 
590.217696  	0.376792 
592.146512  	0.374818 
594.075328  	0.373226 
596.004144  	0.370735 
597.932960  	0.369102 
599.861776  	0.368843 
601.790592  	0.368070 
603.719408  	0.366869 
605.648224  	0.364788 
607.577040  	0.364046 
609.505856  	0.362724 
611.434672  	0.361357 
613.363488  	0.359739 
615.292304  	0.358352 
617.221120  	0.355996 
619.149936  	0.354326 
621.078752  	0.352267 
623.007568  	0.350742 
624.936384  	0.348681 
626.865200  	0.347418 
628.794016  	0.345867 
630.722832  	0.344112 
632.651648  	0.343127 
634.580464  	0.342693 
636.509280  	0.343059 
638.438096  	0.342827 
640.366912  	0.341641 
642.295728  	0.340171 
644.224544  	0.337388 
646.153360  	0.335175 
648.082176  	0.331969 
650.010992  	0.328738 
651.939808  	0.325288 
653.868624  	0.322380 
655.797440  	0.318148 
657.726256  	0.314989 
659.655072  	0.311121 
661.583888  	0.307220 
663.512704  	0.303940 
665.441520  	0.301087 
667.370336  	0.296955 
669.299152  	0.293543 
671.227968  	0.291685 
673.156784  	0.289137 
675.085600  	0.286506 
677.014416  	0.284935 
678.943232  	0.283697 
680.872048  	0.281896 
682.800864  	0.279968 
684.729680  	0.278788 
686.658496  	0.276861 
688.587312  	0.274851 
690.516128  	0.272772 
692.444944  	0.271354 
694.373760  	0.269476 
696.302576  	0.268057 
698.231392  	0.266187 
700.160208  	0.263603 
702.089024  	0.261082 
704.017840  	0.259655 
705.946656  	0.257242 
707.875472  	0.254334 
709.804288  	0.252084 
711.733104  	0.250807 
713.661920  	0.249409 
715.590736  	0.248379 
717.519552  	0.247621 
719.448368  	0.248274 
721.377184  	0.249082 
723.306000  	0.249451 
725.234816  	0.249645 
727.163632  	0.248309 
729.092448  	0.245496 
731.021264  	0.242936 
732.950080  	0.240581 
734.878896  	0.238091 
736.807712  	0.235229 
738.736528  	0.233089 
740.665344  	0.231503 
742.594160  	0.230359 
744.522976  	0.228730 
746.451792  	0.227224 
748.380608  	0.226411 
750.309424  	0.225960 
752.238240  	0.225159 
754.167056  	0.224804 
756.095872  	0.224154 
758.024688  	0.223106 
759.953504  	0.222362 
761.882320  	0.222367 
763.811136  	0.222511 
765.739952  	0.221860 
767.668768  	0.220436 
769.597584  	0.219197 
771.526400  	0.218850 
773.455216  	0.220622 
775.384032  	0.223398 
777.312848  	0.226628 
779.241664  	0.229900 
781.170480  	0.230458 
783.099296  	0.227246 
785.028112  	0.222438 
786.956928  	0.216885 
788.885744  	0.212245 
790.814560  	0.208503 
792.743376  	0.206136 
794.672192  	0.204798 
796.601008  	0.204197 
798.529824  	0.202423 
800.458640  	0.199128 
802.387456  	0.195885 
804.316272  	0.194310 
806.245088  	0.193698 
808.173904  	0.193067 
810.102720  	0.192668 
812.031536  	0.192748 
813.960352  	0.192747 
815.889168  	0.192871 
817.817984  	0.192632 
819.746800  	0.192277 
821.675616  	0.192069 
823.604432  	0.191793 
825.533248  	0.191058 
827.462064  	0.190066 
829.390880  	0.188994 
831.319696  	0.187741 
833.248512  	0.186080 
835.177328  	0.184524 
837.106144  	0.182381 
839.034960  	0.179620 
840.963776  	0.176721 
842.892592  	0.174184 
844.821408  	0.171343 
846.750224  	0.168810 
848.679040  	0.166810 
850.607856  	0.164753 
852.536672  	0.163038 
854.465488  	0.161408 
856.394304  	0.159873 
858.323120  	0.158390 
860.251936  	0.157022 
862.180752  	0.155167 
864.109568  	0.153230 
866.038384  	0.151373 
867.967200  	0.149827 
869.896016  	0.148846 
871.824832  	0.147735 
873.753648  	0.147118 
875.682464  	0.147197 
877.611280  	0.147470 
879.540096  	0.147705 
881.468912  	0.148508 
883.397728  	0.149120 
885.326544  	0.149519 
887.255360  	0.149471 
889.184176  	0.148720 
891.112992  	0.147454 
893.041808  	0.145853 
894.970624  	0.143777 
896.899440  	0.141113 
898.828256  	0.137943 
900.757072  	0.134675 
902.685888  	0.131886 
904.614704  	0.130042 
906.543520  	0.129505 
908.472336  	0.130381 
910.401152  	0.132324 
912.329968  	0.134833 
914.258784  	0.137449 
916.187600  	0.139945 
918.116416  	0.141517 
920.045232  	0.142191 
921.974048  	0.141909 
923.902864  	0.141156 
925.831680  	0.140101 
927.760496  	0.139069 
929.689312  	0.138182 
931.618128  	0.137860 
933.546944  	0.137908 
935.475760  	0.138062 
937.404576  	0.138232 
939.333392  	0.138809 
941.262208  	0.139773 
943.191024  	0.141516 
945.119840  	0.144793 
947.048656  	0.149050 
948.977472  	0.154310 
950.906288  	0.160365 
952.835104  	0.166932 
954.763920  	0.173594 
956.692736  	0.179759 
958.621552  	0.184986 
960.550368  	0.188306 
962.479184  	0.189852 
964.408000  	0.188758 
966.336816  	0.185289 
968.265632  	0.179277 
970.194448  	0.171975 
972.123264  	0.163280 
974.052080  	0.154031 
975.980896  	0.145107 
977.909712  	0.136625 
979.838528  	0.129337 
981.767344  	0.123431 
983.696160  	0.119390 
985.624976  	0.117234 
987.553792  	0.117267 
989.482608  	0.118984 
991.411424  	0.122450 
993.340240  	0.127605 
995.269056  	0.134042 
997.197872  	0.140817 
999.126688  	0.147273 
1001.055504  	0.153689 
1002.984320  	0.159986 
1004.913136  	0.166252 
1006.841952  	0.171659 
1008.770768  	0.176242 
1010.699584  	0.179362 
1012.628400  	0.181206 
1014.557216  	0.182193 
1016.486032  	0.182814 
1018.414848  	0.183176 
1020.343664  	0.183551 
1022.272480  	0.183609 
1024.201296  	0.183106 
1026.130112  	0.181826 
1028.058928  	0.181845 
1029.987744  	0.183430 
1031.916560  	0.185104 
1033.845376  	0.186844 
1035.774192  	0.188752 
1037.703008  	0.191332 
1039.631824  	0.196087 
1041.560640  	0.202141 
1043.489456  	0.210435 
1045.418272  	0.220722 
1047.347088  	0.232933 
1049.275904  	0.245687 
1051.204720  	0.258289 
1053.133536  	0.268941 
1055.062352  	0.277321 
1056.991168  	0.282127 
1058.919984  	0.285559 
1060.848800  	0.286705 
1062.777616  	0.285578 
1064.706432  	0.281493 
1066.635248  	0.277509 
1068.564064  	0.273954 
1070.492880  	0.269066 
1072.421696  	0.262533 
1074.350512  	0.256868 
1076.279328  	0.252452 
1078.208144  	0.249592 
1080.136960  	0.247698 
1082.065776  	0.246173 
1083.994592  	0.244319 
1085.923408  	0.242466 
1087.852224  	0.239512 
1089.781040  	0.236203 
1091.709856  	0.231583 
1093.638672  	0.225322 
1095.567488  	0.217346 
1097.496304  	0.209197 
1099.425120  	0.200245 
1101.353936  	0.191260 
1103.282752  	0.182029 
1105.211568  	0.172459 
1107.140384  	0.163143 
1109.069200  	0.154259 
1110.998016  	0.145874 
1112.926832  	0.138008 
1114.855648  	0.130483 
1116.784464  	0.123015 
1118.713280  	0.116188 
1120.642096  	0.110084 
1122.570912  	0.104129 
1124.499728  	0.098520 
1126.428544  	0.093136 
1128.357360  	0.088232 
1130.286176  	0.083804 
1132.214992  	0.079839 
1134.143808  	0.076385 
1136.072624  	0.073427 
1138.001440  	0.070483 
1139.930256  	0.067590 
1141.859072  	0.064946 
1143.787888  	0.062386 
1145.716704  	0.060326 
1147.645520  	0.058628 
1149.574336  	0.057374 
1151.503152  	0.056574 
1153.431968  	0.056227 
1155.360784  	0.056143 
1157.289600  	0.056560 
1159.218416  	0.057390 
1161.147232  	0.058635 
1163.076048  	0.059931 
1165.004864  	0.061495 
1166.933680  	0.063027 
1168.862496  	0.064850 
1170.791312  	0.067047 
1172.720128  	0.069366 
1174.648944  	0.071640 
1176.577760  	0.074036 
1178.506576  	0.076545 
1180.435392  	0.079012 
1182.364208  	0.081373 
1184.293024  	0.083950 
1186.221840  	0.086718 
1188.150656  	0.089699 
1190.079472  	0.093216 
1192.008288  	0.097312 
1193.937104  	0.102018 
1195.865920  	0.107411 
1197.794736  	0.113024 
1199.723552  	0.119144 
1201.652368  	0.125722 
1203.581184  	0.132527 
1205.510000  	0.139280 
1207.438816  	0.145702 
1209.367632  	0.151844 
1211.296448  	0.157541 
1213.225264  	0.162998 
1215.154080  	0.167645 
1217.082896  	0.171423 
1219.011712  	0.174309 
1220.940528  	0.176727 
1222.869344  	0.178586 
1224.798160  	0.179962 
1226.726976  	0.180641 
1228.655792  	0.181157 
1230.584608  	0.180998 
1232.513424  	0.180108 
1234.442240  	0.178109 
1236.371056  	0.175592 
1238.299872  	0.172204 
1240.228688  	0.167374 
1242.157504  	0.161972 
1244.086320  	0.156692 
1246.015136  	0.150495 
1247.943952  	0.143712 
1249.872768  	0.136932 
1251.801584  	0.130832 
1253.730400  	0.124708 
1255.659216  	0.118818 
1257.588032  	0.113112 
1259.516848  	0.107699 
1261.445664  	0.102673 
1263.374480  	0.098173 
1265.303296  	0.094171 
1267.232112  	0.090984 
1269.160928  	0.088430 
1271.089744  	0.086736 
1273.018560  	0.086105 
1274.947376  	0.085894 
1276.876192  	0.085677 
1278.805008  	0.085030 
1280.733824  	0.083533 
1282.662640  	0.080877 
1284.591456  	0.077359 
1286.520272  	0.073826 
1288.449088  	0.070957 
1290.377904  	0.068662 
1292.306720  	0.066806 
1294.235536  	0.064698 
1296.164352  	0.061811 
1298.093168  	0.058433 
1300.021984  	0.055127 
1301.950800  	0.052074 
1303.879616  	0.049453 
1305.808432  	0.047333 
1307.737248  	0.045687 
1309.666064  	0.044215 
1311.594880  	0.043320 
1313.523696  	0.042916 
1315.452512  	0.042719 
1317.381328  	0.042863 
1319.310144  	0.043537 
1321.238960  	0.044340 
1323.167776  	0.045211 
1325.096592  	0.045889 
1327.025408  	0.046071 
1328.954224  	0.045697 
1330.883040  	0.044979 
1332.811856  	0.044025 
1334.740672  	0.043142 
1336.669488  	0.042096 
1338.598304  	0.041352 
1340.527120  	0.041106 
1342.455936  	0.040809 
1344.384752  	0.040645 
1346.313568  	0.041070 
1348.242384  	0.042158 
1350.171200  	0.043663 
1352.100016  	0.045307 
1354.028832  	0.047032 
1355.957648  	0.049028 
1357.886464  	0.050832 
1359.815280  	0.052021 
1361.744096  	0.053146 
1363.672912  	0.055182 
1365.601728  	0.056329 
1367.530544  	0.056579 
1369.459360  	0.056779 
1371.388176  	0.055896 
1373.316992  	0.054223 
1375.245808  	0.052929 
1377.174624  	0.051286 
1379.103440  	0.049385 
1381.032256  	0.047756 
1382.961072  	0.046464 
1384.889888  	0.045289 
1386.818704  	0.044556 
1388.747520  	0.044222 
1390.676336  	0.042684 
1392.605152  	0.040042 
1394.533968  	0.038999 
1396.462784  	0.040600 
1398.391600  	0.041151 
1400.320416  	0.042299 
1402.249232  	0.042503 
1404.178048  	0.042989 
1406.106864  	0.044585 
1408.035680  	0.046328 
1409.964496  	0.047988 
1411.893312  	0.050330 
1413.822128  	0.052258 
1415.750944  	0.053312 
1417.679760  	0.053432 
1419.608576  	0.054889 
1421.537392  	0.055189 
1423.466208  	0.054022 
1425.395024  	0.053166 
1427.323840  	0.051308 
1429.252656  	0.049469 
1431.181472  	0.048706 
1433.110288  	0.048029 
1435.039104  	0.046900 
1436.967920  	0.048290 
1438.896736  	0.049878 
1440.825552  	0.049914 
1442.754368  	0.050343 
1444.683184  	0.050195 
1446.612000  	0.049748 
1448.540816  	0.050115 
1450.469632  	0.050432 
1452.398448  	0.050131 
1454.327264  	0.048994 
1456.256080  	0.047854 
1458.184896  	0.050551 
1460.113712  	0.051959 
1462.042528  	0.051783 
1463.971344  	0.051432 
1465.900160  	0.054099 
1467.828976  	0.056192 
1469.757792  	0.057322 
1471.686608  	0.059061 
1473.615424  	0.064749 
1475.544240  	0.068582 
1477.473056  	0.071790 
1479.401872  	0.072865 
1481.330688  	0.073312 
1483.259504  	0.073409 
1485.188320  	0.072049 
1487.117136  	0.069568 
1489.045952  	0.067434 
1490.974768  	0.065931 
1492.903584  	0.063361 
1494.832400  	0.059144 
1496.761216  	0.055574 
1498.690032  	0.053085 
1500.618848  	0.051169 
1502.547664  	0.048354 
1504.476480  	0.043978 
1506.405296  	0.040822 
1508.334112  	0.043284 
1510.262928  	0.042961 
1512.191744  	0.042056 
1514.120560  	0.040564 
1516.049376  	0.039420 
1517.978192  	0.040113 
1519.907008  	0.039849 
1521.835824  	0.042583 
1523.764640  	0.045993 
1525.693456  	0.048138 
1527.622272  	0.050930 
1529.551088  	0.052369 
1531.479904  	0.051781 
1533.408720  	0.051270 
1535.337536  	0.051322 
1537.266352  	0.047319 
1539.195168  	0.042380 
1541.123984  	0.041944 
1543.052800  	0.042607 
1544.981616  	0.042557 
1546.910432  	0.042263 
1548.839248  	0.040882 
1550.768064  	0.041243 
1552.696880  	0.040677 
1554.625696  	0.040756 
1556.554512  	0.038806 
1558.483328  	0.037943 
1560.412144  	0.047273 
1562.340960  	0.049711 
1564.269776  	0.051035 
1566.198592  	0.054454 
1568.127408  	0.056391 
1570.056224  	0.061948 
1571.985040  	0.066733 
1573.913856  	0.067525 
1575.842672  	0.068811 
1577.771488  	0.072781 
1579.700304  	0.072812 
1581.629120  	0.072611 
1583.557936  	0.072822 
1585.486752  	0.074210 
1587.415568  	0.076488 
1589.344384  	0.080318 
1591.273200  	0.084792 
1593.202016  	0.090008 
1595.130832  	0.094983 
1597.059648  	0.099983 
1598.988464  	0.103685 
1600.917280  	0.106663 
1602.846096  	0.108287 
1604.774912  	0.109335 
1606.703728  	0.108856 
1608.632544  	0.108302 
1610.561360  	0.107604 
1612.490176  	0.107201 
1614.418992  	0.105414 
1616.347808  	0.106371 
1618.276624  	0.111176 
1620.205440  	0.113985 
1622.134256  	0.116543 
1624.063072  	0.123973 
1625.991888  	0.129931 
1627.920704  	0.136461 
1629.849520  	0.144278 
1631.778336  	0.150012 
1633.707152  	0.153133 
1635.635968  	0.160184 
1637.564784  	0.169449 
1639.493600  	0.173689 
1641.422416  	0.176842 
1643.351232  	0.178288 
1645.280048  	0.177624 
1647.208864  	0.179653 
1649.137680  	0.181148 
1651.066496  	0.177632 
1652.995312  	0.175208 
1654.924128  	0.179838 
1656.852944  	0.178403 
1658.781760  	0.176327 
1660.710576  	0.173739 
1662.639392  	0.172287 
1664.568208  	0.171776 
1666.497024  	0.169185 
1668.425840  	0.166154 
1670.354656  	0.165848 
1672.283472  	0.165357 
1674.212288  	0.163702 
1676.141104  	0.165041 
1678.069920  	0.165272 
1679.998736  	0.164535 
1681.927552  	0.162730 
1683.856368  	0.161610 
1685.785184  	0.166171 
1687.714000  	0.165263 
1689.642816  	0.164018 
1691.571632  	0.162376 
1693.500448  	0.158712 
1695.429264  	0.154277 
1697.358080  	0.151256 
1699.286896  	0.146527 
1701.215712  	0.144598 
1703.144528  	0.140692 
1705.073344  	0.135337 
1707.002160  	0.131072 
1708.930976  	0.126638 
1710.859792  	0.121221 
1712.788608  	0.114631 
1714.717424  	0.107454 
1716.646240  	0.100466 
1718.575056  	0.095560 
1720.503872  	0.090363 
1722.432688  	0.084311 
1724.361504  	0.078147 
1726.290320  	0.072509 
1728.219136  	0.066440 
1730.147952  	0.060719 
1732.076768  	0.054622 
1734.005584  	0.049803 
1735.934400  	0.046443 
1737.863216  	0.041797 
1739.792032  	0.037249 
1741.720848  	0.034260 
1743.649664  	0.031129 
1745.578480  	0.028084 
1747.507296  	0.024737 
1749.436112  	0.022918 
1751.364928  	0.022589 
1753.293744  	0.022209 
1755.222560  	0.020058 
1757.151376  	0.019358 
1759.080192  	0.018226 
1761.009008  	0.017302 
1762.937824  	0.017513 
1764.866640  	0.017082 
1766.795456  	0.015735 
1768.724272  	0.015417 
1770.653088  	0.013517 
1772.581904  	0.013866 
1774.510720  	0.014966 
1776.439536  	0.014979 
1778.368352  	0.014500 
1780.297168  	0.014531 
1782.225984  	0.014453 
1784.154800  	0.014097 
1786.083616  	0.014324 
1788.012432  	0.013968 
1789.941248  	0.012459 
1791.870064  	0.012268 
1793.798880  	0.013347 
1795.727696  	0.013413 
1797.656512  	0.012742 
1799.585328  	0.012330 
1801.514144  	0.012671 
1803.442960  	0.012856 
1805.371776  	0.012466 
1807.300592  	0.012174 
1809.229408  	0.011514 
1811.158224  	0.011685 
1813.087040  	0.011930 
1815.015856  	0.011678 
1816.944672  	0.011594 
1818.873488  	0.012056 
1820.802304  	0.011957 
1822.731120  	0.011498 
1824.659936  	0.011249 
1826.588752  	0.011734 
1828.517568  	0.010710 
1830.446384  	0.011642 
1832.375200  	0.012271 
1834.304016  	0.011918 
1836.232832  	0.011756 
1838.161648  	0.012177 
1840.090464  	0.012003 
1842.019280  	0.010715 
1843.948096  	0.010396 
1845.876912  	0.011902 
1847.805728  	0.012069 
1849.734544  	0.012203 
1851.663360  	0.011877 
1853.592176  	0.011866 
1855.520992  	0.011751 
1857.449808  	0.012197 
1859.378624  	0.012221 
1861.307440  	0.012087 
1863.236256  	0.011744 
1865.165072  	0.011436 
1867.093888  	0.010727 
1869.022704  	0.011615 
1870.951520  	0.012186 
1872.880336  	0.012005 
1874.809152  	0.011883 
1876.737968  	0.011983 
1878.666784  	0.011453 
1880.595600  	0.011465 
1882.524416  	0.011515 
1884.453232  	0.011547 
1886.382048  	0.011226 
1888.310864  	0.011237 
1890.239680  	0.011931 
1892.168496  	0.012157 
1894.097312  	0.011542 
1896.026128  	0.011699 
1897.954944  	0.011617 
1899.883760  	0.011643 
1901.812576  	0.011486 
1903.741392  	0.011535 
1905.670208  	0.011219 
1907.599024  	0.011418 
1909.527840  	0.011425 
1911.456656  	0.011758 
1913.385472  	0.011741 
1915.314288  	0.011635 
1917.243104  	0.011335 
1919.171920  	0.011881 
1921.100736  	0.011419 
1923.029552  	0.012015 
1924.958368  	0.011780 
1926.887184  	0.011704 
1928.816000  	0.011273 
1930.744816  	0.010705 
1932.673632  	0.010594 
1934.602448  	0.011178 
1936.531264  	0.011501 
1938.460080  	0.011402 
1940.388896  	0.010460 
1942.317712  	0.010569 
1944.246528  	0.010935 
1946.175344  	0.011357 
1948.104160  	0.010893 
1950.032976  	0.010811 
1951.961792  	0.011239 
1953.890608  	0.011613 
1955.819424  	0.010841 
1957.748240  	0.011378 
1959.677056  	0.011625 
1961.605872  	0.010861 
1963.534688  	0.009728 
1965.463504  	0.011378 
1967.392320  	0.012194 
1969.321136  	0.012092 
1971.249952  	0.011393 
1973.178768  	0.012279 
1975.107584  	0.011407 
1977.036400  	0.010221 
1978.965216  	0.012190 
1980.894032  	0.013404 
1982.822848  	0.011366 
1984.751664  	0.011439 
1986.680480  	0.011562 
1988.609296  	0.012011 
1990.538112  	0.011925 
1992.466928  	0.012264 
1994.395744  	0.011551 
1996.324560  	0.011519 
1998.253376  	0.011026 
2000.182192  	0.011311 
2002.111008  	0.011378 
2004.039824  	0.011275 
2005.968640  	0.010953 
2007.897456  	0.012681 
2009.826272  	0.012883 
2011.755088  	0.011463 
2013.683904  	0.011487 
2015.612720  	0.011760 
2017.541536  	0.010945 
2019.470352  	0.011486 
2021.399168  	0.011845 
2023.327984  	0.012479 
2025.256800  	0.012022 
2027.185616  	0.011952 
2029.114432  	0.011657 
2031.043248  	0.012665 
2032.972064  	0.012031 
2034.900880  	0.012312 
2036.829696  	0.012794 
2038.758512  	0.012770 
2040.687328  	0.012310 
2042.616144  	0.011642 
2044.544960  	0.010928 
2046.473776  	0.011538 
2048.402592  	0.012451 
2050.331408  	0.013674 
2052.260224  	0.012593 
2054.189040  	0.012055 
2056.117856  	0.011815 
2058.046672  	0.011468 
2059.975488  	0.010967 
2061.904304  	0.011905 
2063.833120  	0.013188 
2065.761936  	0.013197 
2067.690752  	0.012184 
2069.619568  	0.011560 
2071.548384  	0.010977 
2073.477200  	0.010993 
2075.406016  	0.011961 
2077.334832  	0.012713 
2079.263648  	0.011862 
2081.192464  	0.011725 
2083.121280  	0.012324 
2085.050096  	0.012524 
2086.978912  	0.012271 
2088.907728  	0.011978 
2090.836544  	0.011173 
2092.765360  	0.010885 
2094.694176  	0.011231 
2096.622992  	0.011672 
2098.551808  	0.011133 
2100.480624  	0.011048 
2102.409440  	0.011125 
2104.338256  	0.011738 
2106.267072  	0.012005 
2108.195888  	0.012178 
2110.124704  	0.012644 
2112.053520  	0.013115 
2113.982336  	0.012633 
2115.911152  	0.012383 
2117.839968  	0.011691 
2119.768784  	0.011166 
2121.697600  	0.011050 
2123.626416  	0.010882 
2125.555232  	0.010715 
2127.484048  	0.011216 
2129.412864  	0.010702 
2131.341680  	0.009475 
2133.270496  	0.009703 
2135.199312  	0.010831 
2137.128128  	0.011102 
2139.056944  	0.011307 
2140.985760  	0.010509 
2142.914576  	0.010937 
2144.843392  	0.011053 
2146.772208  	0.011299 
2148.701024  	0.011822 
2150.629840  	0.012335 
2152.558656  	0.010592 
2154.487472  	0.008822 
2156.416288  	0.008291 
2158.345104  	0.011431 
2160.273920  	0.015835 
2162.202736  	0.016704 
2164.131552  	0.015232 
2166.060368  	0.015462 
2167.989184  	0.013731 
2169.918000  	0.012459 
2171.846816  	0.013142 
2173.775632  	0.013688 
2175.704448  	0.013996 
2177.633264  	0.014408 
2179.562080  	0.013710 
2181.490896  	0.013412 
2183.419712  	0.013541 
2185.348528  	0.014137 
2187.277344  	0.014403 
2189.206160  	0.014215 
2191.134976  	0.013736 
2193.063792  	0.014310 
2194.992608  	0.014422 
2196.921424  	0.013950 
2198.850240  	0.014767 
2200.779056  	0.015064 
2202.707872  	0.014300 
2204.636688  	0.014336 
2206.565504  	0.014121 
2208.494320  	0.013894 
2210.423136  	0.012872 
2212.351952  	0.013315 
2214.280768  	0.014007 
2216.209584  	0.013380 
2218.138400  	0.013142 
2220.067216  	0.013376 
2221.996032  	0.013584 
2223.924848  	0.013288 
2225.853664  	0.013161 
2227.782480  	0.013774 
2229.711296  	0.014094 
2231.640112  	0.014278 
2233.568928  	0.013820 
2235.497744  	0.013445 
2237.426560  	0.013181 
2239.355376  	0.013208 
2241.284192  	0.012804 
2243.213008  	0.012940 
2245.141824  	0.013208 
2247.070640  	0.012924 
2248.999456  	0.012762 
2250.928272  	0.013035 
2252.857088  	0.012742 
2254.785904  	0.012535 
2256.714720  	0.013166 
2258.643536  	0.013741 
2260.572352  	0.013277 
2262.501168  	0.013240 
2264.429984  	0.013666 
2266.358800  	0.014102 
2268.287616  	0.013904 
2270.216432  	0.013730 
2272.145248  	0.013381 
2274.074064  	0.013497 
2276.002880  	0.013568 
2277.931696  	0.014253 
2279.860512  	0.014929 
2281.789328  	0.015096 
2283.718144  	0.014629 
2285.646960  	0.014776 
2287.575776  	0.015010 
2289.504592  	0.014792 
2291.433408  	0.014314 
2293.362224  	0.014358 
2295.291040  	0.014474 
2297.219856  	0.014599 
2299.148672  	0.014463 
2301.077488  	0.014392 
2303.006304  	0.014556 
2304.935120  	0.014353 
2306.863936  	0.014014 
2308.792752  	0.014030 
2310.721568  	0.014198 
2312.650384  	0.014121 
2314.579200  	0.013865 
2316.508016  	0.013898 
2318.436832  	0.013685 
2320.365648  	0.013415 
2322.294464  	0.013311 
2324.223280  	0.012934 
2326.152096  	0.011308 
2328.080912  	0.010276 
2330.009728  	0.009952 
2331.938544  	0.009947 
2333.867360  	0.009364 
2335.796176  	0.008845 
2337.724992  	0.008471 
2339.653808  	0.008384 
2341.582624  	0.008639 
2343.511440  	0.010075 
2345.440256  	0.011928 
2347.369072  	0.012909 
2349.297888  	0.011472 
2351.226704  	0.009600 
2353.155520  	0.008395 
2355.084336  	0.007479 
2357.013152  	0.007315 
2358.941968  	0.007141 
2360.870784  	0.006788 
2362.799600  	0.007171 
2364.728416  	0.007792 
2366.657232  	0.008791 
2368.586048  	0.009927 
2370.514864  	0.011272 
2372.443680  	0.012072 
2374.372496  	0.013187 
2376.301312  	0.014141 
2378.230128  	0.014881 
2380.158944  	0.015082 
2382.087760  	0.014907 
2384.016576  	0.014629 
2385.945392  	0.014495 
2387.874208  	0.014287 
2389.803024  	0.014053 
2391.731840  	0.013901 
2393.660656  	0.014027 
2395.589472  	0.014271 
2397.518288  	0.014310 
2399.447104  	0.014192 
2401.375920  	0.014045 
2403.304736  	0.014276 
2405.233552  	0.014574 
2407.162368  	0.014786 
2409.091184  	0.014683 
2411.020000  	0.014536 
2412.948816  	0.014744 
2414.877632  	0.014888 
2416.806448  	0.015000 
2418.735264  	0.015099 
2420.664080  	0.014943 
2422.592896  	0.014782 
2424.521712  	0.014845 
2426.450528  	0.015004 
2428.379344  	0.014933 
2430.308160  	0.014938 
2432.236976  	0.015079 
2434.165792  	0.015403 
2436.094608  	0.015798 
2438.023424  	0.015803 
2439.952240  	0.015704 
2441.881056  	0.015707 
2443.809872  	0.015741 
2445.738688  	0.015737 
2447.667504  	0.015937 
2449.596320  	0.016075 
2451.525136  	0.016193 
2453.453952  	0.016079 
2455.382768  	0.016158 
2457.311584  	0.016502 
2459.240400  	0.016632 
2461.169216  	0.016408 
2463.098032  	0.016269 
2465.026848  	0.016250 
2466.955664  	0.016350 
2468.884480  	0.016244 
2470.813296  	0.016191 
2472.742112  	0.016140 
2474.670928  	0.016096 
2476.599744  	0.016215 
2478.528560  	0.016366 
2480.457376  	0.016559 
2482.386192  	0.016568 
2484.315008  	0.016574 
2486.243824  	0.016695 
2488.172640  	0.016544 
2490.101456  	0.016615 
2492.030272  	0.016890 
2493.959088  	0.016969 
2495.887904  	0.016818 
2497.816720  	0.016834 
2499.745536  	0.016867 
2501.674352  	0.017087 
2503.603168  	0.017141 
2505.531984  	0.017274 
2507.460800  	0.017286 
2509.389616  	0.017253 
2511.318432  	0.017183 
2513.247248  	0.017353 
2515.176064  	0.017496 
2517.104880  	0.017771 
2519.033696  	0.017860 
2520.962512  	0.017952 
2522.891328  	0.018099 
2524.820144  	0.017968 
2526.748960  	0.017910 
2528.677776  	0.018091 
2530.606592  	0.018236 
2532.535408  	0.018145 
2534.464224  	0.018181 
2536.393040  	0.018329 
2538.321856  	0.018285 
2540.250672  	0.018377 
2542.179488  	0.018439 
2544.108304  	0.018568 
2546.037120  	0.018489 
2547.965936  	0.018749 
2549.894752  	0.018890 
2551.823568  	0.018752 
2553.752384  	0.018849 
2555.681200  	0.018966 
2557.610016  	0.018955 
2559.538832  	0.019066 
2561.467648  	0.019254 
2563.396464  	0.019594 
2565.325280  	0.019754 
2567.254096  	0.019713 
2569.182912  	0.019520 
2571.111728  	0.019443 
2573.040544  	0.019264 
2574.969360  	0.019406 
2576.898176  	0.019790 
2578.826992  	0.019988 
2580.755808  	0.020022 
2582.684624  	0.019998 
2584.613440  	0.019850 
2586.542256  	0.020104 
2588.471072  	0.020314 
2590.399888  	0.020160 
2592.328704  	0.020223 
2594.257520  	0.020487 
2596.186336  	0.020876 
2598.115152  	0.020948 
2600.043968  	0.020795 
2601.972784  	0.020791 
2603.901600  	0.020999 
2605.830416  	0.021229 
2607.759232  	0.021088 
2609.688048  	0.021124 
2611.616864  	0.021360 
2613.545680  	0.021482 
2615.474496  	0.021479 
2617.403312  	0.021492 
2619.332128  	0.021693 
2621.260944  	0.021881 
2623.189760  	0.021909 
2625.118576  	0.022052 
2627.047392  	0.022137 
2628.976208  	0.022449 
2630.905024  	0.022611 
2632.833840  	0.022755 
2634.762656  	0.022901 
2636.691472  	0.022917 
2638.620288  	0.022989 
2640.549104  	0.023098 
2642.477920  	0.023131 
2644.406736  	0.023307 
2646.335552  	0.023558 
2648.264368  	0.023653 
2650.193184  	0.023734 
2652.122000  	0.023841 
2654.050816  	0.024050 
2655.979632  	0.024125 
2657.908448  	0.024045 
2659.837264  	0.024128 
2661.766080  	0.024110 
2663.694896  	0.024064 
2665.623712  	0.024021 
2667.552528  	0.024023 
2669.481344  	0.024199 
2671.410160  	0.024419 
2673.338976  	0.024535 
2675.267792  	0.024679 
2677.196608  	0.024788 
2679.125424  	0.024922 
2681.054240  	0.024968 
2682.983056  	0.025051 
2684.911872  	0.025253 
2686.840688  	0.025395 
2688.769504  	0.025475 
2690.698320  	0.025576 
2692.627136  	0.025728 
2694.555952  	0.025812 
2696.484768  	0.025771 
2698.413584  	0.025905 
2700.342400  	0.026012 
2702.271216  	0.026197 
2704.200032  	0.026466 
2706.128848  	0.026573 
2708.057664  	0.026607 
2709.986480  	0.026712 
2711.915296  	0.026764 
2713.844112  	0.026854 
2715.772928  	0.027016 
2717.701744  	0.027211 
2719.630560  	0.027250 
2721.559376  	0.027330 
2723.488192  	0.027418 
2725.417008  	0.027729 
2727.345824  	0.027930 
2729.274640  	0.027935 
2731.203456  	0.027966 
2733.132272  	0.028069 
2735.061088  	0.028255 
2736.989904  	0.028374 
2738.918720  	0.028431 
2740.847536  	0.028384 
2742.776352  	0.028517 
2744.705168  	0.028739 
2746.633984  	0.028849 
2748.562800  	0.028993 
2750.491616  	0.029020 
2752.420432  	0.028979 
2754.349248  	0.029079 
2756.278064  	0.029219 
2758.206880  	0.029260 
2760.135696  	0.029472 
2762.064512  	0.029600 
2763.993328  	0.029564 
2765.922144  	0.029536 
2767.850960  	0.029676 
2769.779776  	0.029790 
2771.708592  	0.029794 
2773.637408  	0.029678 
2775.566224  	0.029699 
2777.495040  	0.029807 
2779.423856  	0.029926 
2781.352672  	0.030101 
2783.281488  	0.030259 
2785.210304  	0.030234 
2787.139120  	0.030269 
2789.067936  	0.030440 
2790.996752  	0.030615 
2792.925568  	0.030686 
2794.854384  	0.030743 
2796.783200  	0.030882 
2798.712016  	0.030798 
2800.640832  	0.030821 
2802.569648  	0.031061 
2804.498464  	0.031151 
2806.427280  	0.031199 
2808.356096  	0.031338 
2810.284912  	0.031455 
2812.213728  	0.031427 
2814.142544  	0.031444 
2816.071360  	0.031618 
2818.000176  	0.031637 
2819.928992  	0.031495 
2821.857808  	0.031534 
2823.786624  	0.031523 
2825.715440  	0.031430 
2827.644256  	0.031321 
2829.573072  	0.031332 
2831.501888  	0.031290 
2833.430704  	0.031097 
2835.359520  	0.030932 
2837.288336  	0.030868 
2839.217152  	0.030774 
2841.145968  	0.030563 
2843.074784  	0.030381 
2845.003600  	0.030351 
2846.932416  	0.030354 
2848.861232  	0.030228 
2850.790048  	0.030072 
2852.718864  	0.029906 
2854.647680  	0.029653 
2856.576496  	0.029595 
2858.505312  	0.029345 
2860.434128  	0.029095 
2862.362944  	0.028835 
2864.291760  	0.028487 
2866.220576  	0.028258 
2868.149392  	0.028372 
2870.078208  	0.028604 
2872.007024  	0.028798 
2873.935840  	0.029105 
2875.864656  	0.029346 
2877.793472  	0.029596 
2879.722288  	0.029826 
2881.651104  	0.029828 
2883.579920  	0.029835 
2885.508736  	0.030067 
2887.437552  	0.030384 
2889.366368  	0.030473 
2891.295184  	0.030398 
2893.224000  	0.030368 
2895.152816  	0.030434 
2897.081632  	0.030038 
2899.010448  	0.029210 
2900.939264  	0.029041 
2902.868080  	0.029862 
2904.796896  	0.030374 
2906.725712  	0.030559 
2908.654528  	0.030765 
2910.583344  	0.031133 
2912.512160  	0.031787 
2914.440976  	0.032600 
2916.369792  	0.033231 
2918.298608  	0.033686 
2920.227424  	0.034206 
2922.156240  	0.034860 
2924.085056  	0.035574 
2926.013872  	0.036301 
2927.942688  	0.037157 
2929.871504  	0.037930 
2931.800320  	0.038400 
2933.729136  	0.038861 
2935.657952  	0.039264 
2937.586768  	0.039545 
2939.515584  	0.039792 
2941.444400  	0.040138 
2943.373216  	0.040350 
2945.302032  	0.040460 
2947.230848  	0.040527 
2949.159664  	0.040409 
2951.088480  	0.040145 
2953.017296  	0.039866 
2954.946112  	0.039419 
2956.874928  	0.038853 
2958.803744  	0.038430 
2960.732560  	0.038084 
2962.661376  	0.037666 
2964.590192  	0.037127 
2966.519008  	0.036510 
2968.447824  	0.035890 
2970.376640  	0.035541 
2972.305456  	0.035261 
2974.234272  	0.035122 
2976.163088  	0.035046 
2978.091904  	0.034896 
2980.020720  	0.034807 
2981.949536  	0.034838 
2983.878352  	0.034471 
2985.807168  	0.033982 
2987.735984  	0.033852 
2989.664800  	0.034410 
2991.593616  	0.035793 
2993.522432  	0.036286 
2995.451248  	0.036364 
2997.380064  	0.036735 
2999.308880  	0.037373 
3001.237696  	0.038134 
3003.166512  	0.038762 
3005.095328  	0.039274 
3007.024144  	0.039922 
3008.952960  	0.040827 
3010.881776  	0.041514 
3012.810592  	0.041899 
3014.739408  	0.042383 
3016.668224  	0.043059 
3018.597040  	0.043628 
3020.525856  	0.044080 
3022.454672  	0.044675 
3024.383488  	0.045300 
3026.312304  	0.045891 
3028.241120  	0.046261 
3030.169936  	0.046495 
3032.098752  	0.047050 
3034.027568  	0.047370 
3035.956384  	0.047454 
3037.885200  	0.047787 
3039.814016  	0.048342 
3041.742832  	0.048830 
3043.671648  	0.049166 
3045.600464  	0.049362 
3047.529280  	0.049691 
3049.458096  	0.050068 
3051.386912  	0.050092 
3053.315728  	0.050279 
3055.244544  	0.050783 
3057.173360  	0.051396 
3059.102176  	0.051764 
3061.030992  	0.051925 
3062.959808  	0.052237 
3064.888624  	0.052735 
3066.817440  	0.053342 
3068.746256  	0.053687 
3070.675072  	0.053933 
3072.603888  	0.054253 
3074.532704  	0.054750 
3076.461520  	0.055113 
3078.390336  	0.055402 
3080.319152  	0.055829 
3082.247968  	0.056329 
3084.176784  	0.056753 
3086.105600  	0.057062 
3088.034416  	0.057482 
3089.963232  	0.057897 
3091.892048  	0.058170 
3093.820864  	0.058412 
3095.749680  	0.058868 
3097.678496  	0.059008 
3099.607312  	0.059229 
3101.536128  	0.059704 
3103.464944  	0.060256 
3105.393760  	0.060744 
3107.322576  	0.061098 
3109.251392  	0.061363 
3111.180208  	0.061575 
3113.109024  	0.061725 
3115.037840  	0.061954 
3116.966656  	0.062317 
3118.895472  	0.062756 
3120.824288  	0.062994 
3122.753104  	0.063280 
3124.681920  	0.063595 
3126.610736  	0.063741 
3128.539552  	0.063863 
3130.468368  	0.063900 
3132.397184  	0.064051 
3134.326000  	0.064456 
3136.254816  	0.064777 
3138.183632  	0.065038 
3140.112448  	0.065159 
3142.041264  	0.065207 
3143.970080  	0.065585 
3145.898896  	0.065959 
3147.827712  	0.066156 
3149.756528  	0.066431 
3151.685344  	0.066846 
3153.614160  	0.067172 
3155.542976  	0.067379 
3157.471792  	0.067533 
3159.400608  	0.068037 
3161.329424  	0.068546 
3163.258240  	0.068862 
3165.187056  	0.069129 
3167.115872  	0.069311 
3169.044688  	0.069437 
3170.973504  	0.069522 
3172.902320  	0.069539 
3174.831136  	0.069570 
3176.759952  	0.069825 
3178.688768  	0.070242 
3180.617584  	0.070340 
3182.546400  	0.070230 
3184.475216  	0.070623 
3186.404032  	0.070836 
3188.332848  	0.070781 
3190.261664  	0.070850 
3192.190480  	0.071001 
3194.119296  	0.070862 
3196.048112  	0.070683 
3197.976928  	0.070963 
3199.905744  	0.071137 
3201.834560  	0.071111 
3203.763376  	0.071114 
3205.692192  	0.071118 
3207.621008  	0.070832 
3209.549824  	0.070607 
3211.478640  	0.070564 
3213.407456  	0.070300 
3215.336272  	0.070284 
3217.265088  	0.070293 
3219.193904  	0.069973 
3221.122720  	0.069490 
3223.051536  	0.069279 
3224.980352  	0.069251 
3226.909168  	0.069108 
3228.837984  	0.068929 
3230.766800  	0.068795 
3232.695616  	0.068743 
3234.624432  	0.068672 
3236.553248  	0.068587 
3238.482064  	0.068296 
3240.410880  	0.068104 
3242.339696  	0.068216 
3244.268512  	0.068299 
3246.197328  	0.068259 
3248.126144  	0.068144 
3250.054960  	0.068187 
3251.983776  	0.068187 
3253.912592  	0.068305 
3255.841408  	0.068334 
3257.770224  	0.068452 
3259.699040  	0.068680 
3261.627856  	0.068718 
3263.556672  	0.068812 
3265.485488  	0.068881 
3267.414304  	0.069031 
3269.343120  	0.069115 
3271.271936  	0.069118 
3273.200752  	0.069260 
3275.129568  	0.069435 
3277.058384  	0.069454 
3278.987200  	0.069727 
3280.916016  	0.069971 
3282.844832  	0.070012 
3284.773648  	0.070051 
3286.702464  	0.070087 
3288.631280  	0.070258 
3290.560096  	0.070411 
3292.488912  	0.070633 
3294.417728  	0.070734 
3296.346544  	0.070878 
3298.275360  	0.071181 
3300.204176  	0.071414 
3302.132992  	0.071576 
3304.061808  	0.071794 
3305.990624  	0.072128 
3307.919440  	0.072328 
3309.848256  	0.072363 
3311.777072  	0.072302 
3313.705888  	0.072522 
3315.634704  	0.072971 
3317.563520  	0.073329 
3319.492336  	0.073520 
3321.421152  	0.073571 
3323.349968  	0.073597 
3325.278784  	0.073776 
3327.207600  	0.073834 
3329.136416  	0.073750 
3331.065232  	0.073668 
3332.994048  	0.073789 
3334.922864  	0.073828 
3336.851680  	0.073828 
3338.780496  	0.073868 
3340.709312  	0.073684 
3342.638128  	0.073655 
3344.566944  	0.073565 
3346.495760  	0.073246 
3348.424576  	0.072912 
3350.353392  	0.072750 
3352.282208  	0.072691 
3354.211024  	0.072558 
3356.139840  	0.072376 
3358.068656  	0.071987 
3359.997472  	0.071620 
3361.926288  	0.071363 
3363.855104  	0.071186 
3365.783920  	0.070948 
3367.712736  	0.070616 
3369.641552  	0.070183 
3371.570368  	0.069781 
3373.499184  	0.069509 
3375.428000  	0.069384 
3377.356816  	0.069201 
3379.285632  	0.068870 
3381.214448  	0.068738 
3383.143264  	0.068476 
3385.072080  	0.068288 
3387.000896  	0.067921 
3388.929712  	0.067517 
3390.858528  	0.067054 
3392.787344  	0.066697 
3394.716160  	0.066384 
3396.644976  	0.066190 
3398.573792  	0.065845 
3400.502608  	0.065195 
3402.431424  	0.064894 
3404.360240  	0.064684 
3406.289056  	0.064400 
3408.217872  	0.064015 
3410.146688  	0.063638 
3412.075504  	0.063465 
3414.004320  	0.063201 
3415.933136  	0.062673 
3417.861952  	0.062028 
3419.790768  	0.061682 
3421.719584  	0.061519 
3423.648400  	0.061200 
3425.577216  	0.060939 
3427.506032  	0.060582 
3429.434848  	0.060051 
3431.363664  	0.059842 
3433.292480  	0.059657 
3435.221296  	0.059331 
3437.150112  	0.058923 
3439.078928  	0.058600 
3441.007744  	0.058294 
3442.936560  	0.058132 
3444.865376  	0.057492 
3446.794192  	0.056785 
3448.723008  	0.056667 
3450.651824  	0.056112 
3452.580640  	0.055532 
3454.509456  	0.055153 
3456.438272  	0.054821 
3458.367088  	0.054373 
3460.295904  	0.054005 
3462.224720  	0.053587 
3464.153536  	0.052950 
3466.082352  	0.052472 
3468.011168  	0.052266 
3469.939984  	0.051855 
3471.868800  	0.051311 
3473.797616  	0.050812 
3475.726432  	0.050334 
3477.655248  	0.049698 
3479.584064  	0.049155 
3481.512880  	0.048879 
3483.441696  	0.048541 
3485.370512  	0.047702 
3487.299328  	0.047262 
3489.228144  	0.046992 
3491.156960  	0.046235 
3493.085776  	0.045703 
3495.014592  	0.045410 
3496.943408  	0.045078 
3498.872224  	0.044450 
3500.801040  	0.043642 
3502.729856  	0.043207 
3504.658672  	0.043163 
3506.587488  	0.042387 
3508.516304  	0.041790 
3510.445120  	0.041989 
3512.373936  	0.041866 
3514.302752  	0.041425 
3516.231568  	0.040893 
3518.160384  	0.040482 
3520.089200  	0.040024 
3522.018016  	0.039364 
3523.946832  	0.039043 
3525.875648  	0.038706 
3527.804464  	0.038463 
3529.733280  	0.038370 
3531.662096  	0.038145 
3533.590912  	0.037503 
3535.519728  	0.037050 
3537.448544  	0.036931 
3539.377360  	0.036396 
3541.306176  	0.035778 
3543.234992  	0.035157 
3545.163808  	0.035185 
3547.092624  	0.035326 
3549.021440  	0.034471 
3550.950256  	0.033526 
3552.879072  	0.033839 
3554.807888  	0.033877 
3556.736704  	0.033292 
3558.665520  	0.032707 
3560.594336  	0.032338 
3562.523152  	0.031495 
3564.451968  	0.029975 
3566.380784  	0.029824 
3568.309600  	0.031893 
3570.238416  	0.031511 
3572.167232  	0.029984 
3574.096048  	0.029437 
3576.024864  	0.029226 
3577.953680  	0.028737 
3579.882496  	0.028424 
3581.811312  	0.028154 
3583.740128  	0.026904 
3585.668944  	0.025278 
3587.597760  	0.026365 
3589.526576  	0.027559 
3591.455392  	0.025554 
3593.384208  	0.024445 
3595.313024  	0.024601 
3597.241840  	0.024275 
3599.170656  	0.023217 
3601.099472  	0.023066 
3603.028288  	0.022981 
3604.957104  	0.021552 
3606.885920  	0.020221 
3608.814736  	0.021159 
3610.743552  	0.020553 
3612.672368  	0.019240 
3614.601184  	0.019179 
3616.530000  	0.017440 
3618.458816  	0.017065 
3620.387632  	0.018954 
3622.316448  	0.018371 
3624.245264  	0.016399 
3626.174080  	0.013494 
3628.102896  	0.012656 
3630.031712  	0.017339 
3631.960528  	0.016078 
3633.889344  	0.014582 
3635.818160  	0.014030 
3637.746976  	0.013272 
3639.675792  	0.012899 
3641.604608  	0.012332 
3643.533424  	0.011176 
3645.462240  	0.008140 
3647.391056  	0.006056 
3649.319872  	0.007479 
3651.248688  	0.011134 
3653.177504  	0.009855 
3655.106320  	0.007487 
3657.035136  	0.008909 
3658.963952  	0.008710 
3660.892768  	0.007708 
3662.821584  	0.007306 
3664.750400  	0.006526 
3666.679216  	0.004260 
3668.608032  	0.002006 
3670.536848  	0.004490 
3672.465664  	0.004050 
3674.394480  	0.000830 
3676.323296  	0.005609 
3678.252112  	0.006663 
3680.180928  	0.006375 
3682.109744  	0.005971 
3684.038560  	0.004859 
3685.967376  	0.002628 
3687.896192  	0.001442 
3689.825008  	0.003682 
3691.753824  	0.005663 
3693.682640  	0.005862 
3695.611456  	0.005092 
3697.540272  	0.005142 
3699.469088  	0.004505 
3701.397904  	0.005346 
3703.326720  	0.006829 
3705.255536  	0.005980 
3707.184352  	0.004234 
3709.113168  	0.002897 
3711.041984  	0.003836 
3712.970800  	0.007234 
3714.899616  	0.007626 
3716.828432  	0.006324 
3718.757248  	0.005410 
3720.686064  	0.004729 
3722.614880  	0.005127 
3724.543696  	0.005302 
3726.472512  	0.006006 
3728.401328  	0.005909 
3730.330144  	0.003153 
3732.258960  	0.002395 
3734.187776  	0.003085 
3736.116592  	0.006175 
3738.045408  	0.006965 
3739.974224  	0.005162 
3741.903040  	0.002491 
3743.831856  	0.002744 
3745.760672  	0.007280 
3747.689488  	0.003285 
3749.618304  	0.001923 
3751.547120  	0.005123 
3753.475936  	0.008211 
3755.404752  	0.006596 
3757.333568  	0.005228 
3759.262384  	0.005789 
3761.191200  	0.007421 
3763.120016  	0.006217 
3765.048832  	0.005708 
3766.977648  	0.006040 
3768.906464  	0.005521 
3770.835280  	0.007337 
3772.764096  	0.007575 
3774.692912  	0.006829 
3776.621728  	0.005816 
3778.550544  	0.005474 
3780.479360  	0.007261 
3782.408176  	0.006866 
3784.336992  	0.006358 
3786.265808  	0.007061 
3788.194624  	0.007083 
3790.123440  	0.006763 
3792.052256  	0.006542 
3793.981072  	0.005370 
3795.909888  	0.005034 
3797.838704  	0.005465 
3799.767520  	0.003171 
3801.696336  	0.005337 
3803.625152  	0.006777 
3805.553968  	0.004331 
3807.482784  	0.006780 
3809.411600  	0.007819 
3811.340416  	0.006667 
3813.269232  	0.004674 
3815.198048  	0.003648 
3817.126864  	0.005930 
3819.055680  	0.003517 
3820.984496  	0.004487 
3822.913312  	0.008183 
3824.842128  	0.006290 
3826.770944  	0.006107 
3828.699760  	0.005969 
3830.628576  	0.004825 
3832.557392  	0.005075 
3834.486208  	0.004125 
3836.415024  	0.002974 
3838.343840  	0.004576 
3840.272656  	0.005962 
3842.201472  	0.006121 
3844.130288  	0.006709 
3846.059104  	0.006979 
3847.987920  	0.005641 
3849.916736  	0.003079 
3851.845552  	0.000307 
3853.774368  	0.006044 
3855.703184  	0.009331 
3857.632000  	0.007226 
3859.560816  	0.005675 
3861.489632  	0.004661 
3863.418448  	0.004820 
3865.347264  	0.006448 
3867.276080  	0.005125 
3869.204896  	0.004223 
3871.133712  	0.007392 
3873.062528  	0.006115 
3874.991344  	0.007226 
3876.920160  	0.006476 
3878.848976  	0.004653 
3880.777792  	0.006377 
3882.706608  	0.006580 
3884.635424  	0.005306 
3886.564240  	0.007962 
3888.493056  	0.006645 
3890.421872  	0.005439 
3892.350688  	0.007511 
3894.279504  	0.007466 
3896.208320  	0.005865 
3898.137136  	0.004865 
3900.065952  	0.005325 
3901.994768  	0.005710 
3903.923584  	0.006988 
3905.852400  	0.008587 
3907.781216  	0.007997 
3909.710032  	0.007365 
3911.638848  	0.007265 
3913.567664  	0.006801 
3915.496480  	0.006290 
3917.425296  	0.007306 
3919.354112  	0.007784 
3921.282928  	0.007593 
3923.211744  	0.006797 
3925.140560  	0.007434 
3927.069376  	0.007440 
3928.998192  	0.006550 
3930.927008  	0.006754 
3932.855824  	0.007885 
3934.784640  	0.008056 
3936.713456  	0.007635 
3938.642272  	0.007525 
3940.571088  	0.006874 
3942.499904  	0.007233 
3944.428720  	0.007755 
3946.357536  	0.007031 
3948.286352  	0.007040 
3950.215168  	0.007316 
3952.143984  	0.007264 
3954.072800  	0.007034 
3956.001616  	0.007063 
3957.930432  	0.007354 
3959.859248  	0.007611 
3961.788064  	0.007692 
3963.716880  	0.007640 
3965.645696  	0.007454 
3967.574512  	0.007612 
3969.503328  	0.007695 
3971.432144  	0.007448 
3973.360960  	0.007343 
3975.289776  	0.007679 
3977.218592  	0.007875 
3979.147408  	0.007919 
3981.076224  	0.007777 
3983.005040  	0.007699 
3984.933856  	0.007722 
3986.862672  	0.007686 
3988.791488  	0.007624 
3990.720304  	0.007588 
3992.649120  	0.007562 
3994.577936  	0.007609 
3996.506752  	0.007731 
3998.435568  	0.007783 
4000.364384  	0.007776 