##TITLE=No Description
##DATA TYPE=INFRARED SPECTRUM
##XUNITS=1/CM
##YUNITS=Abs
399.264912  	0.566974 
401.193728  	0.572347 
403.122544  	0.591252 
405.051360  	0.569240 
406.980176  	0.551059 
408.908992  	0.553571 
410.837808  	0.560229 
412.766624  	0.556291 
414.695440  	0.559367 
416.624256  	0.553313 
418.553072  	0.549364 
420.481888  	0.547073 
422.410704  	0.543673 
424.339520  	0.539294 
426.268336  	0.537160 
428.197152  	0.526945 
430.125968  	0.523483 
432.054784  	0.519198 
433.983600  	0.521490 
435.912416  	0.514864 
437.841232  	0.519504 
439.770048  	0.523029 
441.698864  	0.519324 
443.627680  	0.513918 
445.556496  	0.513020 
447.485312  	0.508705 
449.414128  	0.508671 
451.342944  	0.503779 
453.271760  	0.502475 
455.200576  	0.497480 
457.129392  	0.495196 
459.058208  	0.492386 
460.987024  	0.495304 
462.915840  	0.494301 
464.844656  	0.499574 
466.773472  	0.498939 
468.702288  	0.501682 
470.631104  	0.498709 
472.559920  	0.497494 
474.488736  	0.496680 
476.417552  	0.496679 
478.346368  	0.493053 
480.275184  	0.492077 
482.204000  	0.493350 
484.132816  	0.495738 
486.061632  	0.493481 
487.990448  	0.493093 
489.919264  	0.490415 
491.848080  	0.489080 
493.776896  	0.487105 
495.705712  	0.487261 
497.634528  	0.483064 
499.563344  	0.483242 
501.492160  	0.483889 
503.420976  	0.485079 
505.349792  	0.482631 
507.278608  	0.481572 
509.207424  	0.482157 
511.136240  	0.484502 
513.065056  	0.486699 
514.993872  	0.488638 
516.922688  	0.485914 
518.851504  	0.487194 
520.780320  	0.485681 
522.709136  	0.486315 
524.637952  	0.484230 
526.566768  	0.484299 
528.495584  	0.482924 
530.424400  	0.480455 
532.353216  	0.475650 
534.282032  	0.470793 
536.210848  	0.466163 
538.139664  	0.462317 
540.068480  	0.457354 
541.997296  	0.454941 
543.926112  	0.450419 
545.854928  	0.448079 
547.783744  	0.444228 
549.712560  	0.439392 
551.641376  	0.435271 
553.570192  	0.433359 
555.499008  	0.429819 
557.427824  	0.426638 
559.356640  	0.422296 
561.285456  	0.419962 
563.214272  	0.417173 
565.143088  	0.413870 
567.071904  	0.409316 
569.000720  	0.405845 
570.929536  	0.401830 
572.858352  	0.398642 
574.787168  	0.396167 
576.715984  	0.394433 
578.644800  	0.390270 
580.573616  	0.386453 
582.502432  	0.382521 
584.431248  	0.379065 
586.360064  	0.376251 
588.288880  	0.374702 
590.217696  	0.372576 
592.146512  	0.371528 
594.075328  	0.369618 
596.004144  	0.366913 
597.932960  	0.364697 
599.861776  	0.363791 
601.790592  	0.363086 
603.719408  	0.361921 
605.648224  	0.359570 
607.577040  	0.359415 
609.505856  	0.359192 
611.434672  	0.357876 
613.363488  	0.355547 
615.292304  	0.354077 
617.221120  	0.352236 
619.149936  	0.351143 
621.078752  	0.348128 
623.007568  	0.345466 
624.936384  	0.343620 
626.865200  	0.342489 
628.794016  	0.341627 
630.722832  	0.340510 
632.651648  	0.339290 
634.580464  	0.339061 
636.509280  	0.339277 
638.438096  	0.338887 
640.366912  	0.337903 
642.295728  	0.336262 
644.224544  	0.333775 
646.153360  	0.331169 
648.082176  	0.327702 
650.010992  	0.324382 
651.939808  	0.320494 
653.868624  	0.317380 
655.797440  	0.313963 
657.726256  	0.311211 
659.655072  	0.307271 
661.583888  	0.303318 
663.512704  	0.300207 
665.441520  	0.296965 
667.370336  	0.291583 
669.299152  	0.287942 
671.227968  	0.286608 
673.156784  	0.284263 
675.085600  	0.281945 
677.014416  	0.280201 
678.943232  	0.278383 
680.872048  	0.276654 
682.800864  	0.275362 
684.729680  	0.274377 
686.658496  	0.272449 
688.587312  	0.270520 
690.516128  	0.268692 
692.444944  	0.267333 
694.373760  	0.265734 
696.302576  	0.264274 
698.231392  	0.262045 
700.160208  	0.259562 
702.089024  	0.257290 
704.017840  	0.255669 
705.946656  	0.252683 
707.875472  	0.249950 
709.804288  	0.248011 
711.733104  	0.246895 
713.661920  	0.245312 
715.590736  	0.244338 
717.519552  	0.243945 
719.448368  	0.244259 
721.377184  	0.245437 
723.306000  	0.246218 
725.234816  	0.245935 
727.163632  	0.244451 
729.092448  	0.242104 
731.021264  	0.239813 
732.950080  	0.236864 
734.878896  	0.233961 
736.807712  	0.231580 
738.736528  	0.229813 
740.665344  	0.227839 
742.594160  	0.226357 
744.522976  	0.224898 
746.451792  	0.223860 
748.380608  	0.223046 
750.309424  	0.222512 
752.238240  	0.221938 
754.167056  	0.221823 
756.095872  	0.221260 
758.024688  	0.220122 
759.953504  	0.219469 
761.882320  	0.219005 
763.811136  	0.219062 
765.739952  	0.218861 
767.668768  	0.217683 
769.597584  	0.216367 
771.526400  	0.216207 
773.455216  	0.217809 
775.384032  	0.220339 
777.312848  	0.224236 
779.241664  	0.227836 
781.170480  	0.228483 
783.099296  	0.225588 
785.028112  	0.220919 
786.956928  	0.215109 
788.885744  	0.210142 
790.814560  	0.206515 
792.743376  	0.204322 
794.672192  	0.202915 
796.601008  	0.202023 
798.529824  	0.200531 
800.458640  	0.197738 
802.387456  	0.194141 
804.316272  	0.192294 
806.245088  	0.191789 
808.173904  	0.191409 
810.102720  	0.191318 
812.031536  	0.191714 
813.960352  	0.191769 
815.889168  	0.191536 
817.817984  	0.191472 
819.746800  	0.191306 
821.675616  	0.190954 
823.604432  	0.190772 
825.533248  	0.190258 
827.462064  	0.189054 
829.390880  	0.187851 
831.319696  	0.187059 
833.248512  	0.185728 
835.177328  	0.183760 
837.106144  	0.181383 
839.034960  	0.178899 
840.963776  	0.176197 
842.892592  	0.173657 
844.821408  	0.171050 
846.750224  	0.168679 
848.679040  	0.166727 
850.607856  	0.164901 
852.536672  	0.163617 
854.465488  	0.162533 
856.394304  	0.161624 
858.323120  	0.160758 
860.251936  	0.159774 
862.180752  	0.158393 
864.109568  	0.157088 
866.038384  	0.155880 
867.967200  	0.154591 
869.896016  	0.153535 
871.824832  	0.152242 
873.753648  	0.151400 
875.682464  	0.151098 
877.611280  	0.152138 
879.540096  	0.153522 
881.468912  	0.153942 
883.397728  	0.154140 
885.326544  	0.154042 
887.255360  	0.154134 
889.184176  	0.154074 
891.112992  	0.153701 
893.041808  	0.152028 
894.970624  	0.149555 
896.899440  	0.146793 
898.828256  	0.143189 
900.757072  	0.139551 
902.685888  	0.136210 
904.614704  	0.133810 
906.543520  	0.132712 
908.472336  	0.133088 
910.401152  	0.134117 
912.329968  	0.136002 
914.258784  	0.138409 
916.187600  	0.140553 
918.116416  	0.142107 
920.045232  	0.142867 
921.974048  	0.142489 
923.902864  	0.141400 
925.831680  	0.140068 
927.760496  	0.139012 
929.689312  	0.138112 
931.618128  	0.137937 
933.546944  	0.138089 
935.475760  	0.138116 
937.404576  	0.138130 
939.333392  	0.138488 
941.262208  	0.139585 
943.191024  	0.141596 
945.119840  	0.144831 
947.048656  	0.149084 
948.977472  	0.154358 
950.906288  	0.160677 
952.835104  	0.167532 
954.763920  	0.174174 
956.692736  	0.180615 
958.621552  	0.186214 
960.550368  	0.189707 
962.479184  	0.191140 
964.408000  	0.189965 
966.336816  	0.186757 
968.265632  	0.180841 
970.194448  	0.173129 
972.123264  	0.164449 
974.052080  	0.155166 
975.980896  	0.146020 
977.909712  	0.137631 
979.838528  	0.130500 
981.767344  	0.124795 
983.696160  	0.120983 
985.624976  	0.119014 
987.553792  	0.119150 
989.482608  	0.121152 
991.411424  	0.124976 
993.340240  	0.130501 
995.269056  	0.137476 
997.197872  	0.144972 
999.126688  	0.152239 
1001.055504  	0.159599 
1002.984320  	0.166966 
1004.913136  	0.174244 
1006.841952  	0.180455 
1008.770768  	0.185902 
1010.699584  	0.190393 
1012.628400  	0.193821 
1014.557216  	0.195937 
1016.486032  	0.197086 
1018.414848  	0.197933 
1020.343664  	0.198736 
1022.272480  	0.199057 
1024.201296  	0.199742 
1026.130112  	0.202147 
1028.058928  	0.204076 
1029.987744  	0.203431 
1031.916560  	0.205573 
1033.845376  	0.210059 
1035.774192  	0.216037 
1037.703008  	0.222305 
1039.631824  	0.228664 
1041.560640  	0.236580 
1043.489456  	0.246908 
1045.418272  	0.258861 
1047.347088  	0.272462 
1049.275904  	0.286097 
1051.204720  	0.299985 
1053.133536  	0.311016 
1055.062352  	0.319525 
1056.991168  	0.325423 
1058.919984  	0.326760 
1060.848800  	0.324373 
1062.777616  	0.323765 
1064.706432  	0.324220 
1066.635248  	0.322155 
1068.564064  	0.313716 
1070.492880  	0.306656 
1072.421696  	0.301413 
1074.350512  	0.296989 
1076.279328  	0.292546 
1078.208144  	0.288514 
1080.136960  	0.283889 
1082.065776  	0.279110 
1083.994592  	0.274172 
1085.923408  	0.269737 
1087.852224  	0.264347 
1089.781040  	0.258303 
1091.709856  	0.249904 
1093.638672  	0.241311 
1095.567488  	0.232678 
1097.496304  	0.223850 
1099.425120  	0.214067 
1101.353936  	0.204626 
1103.282752  	0.194759 
1105.211568  	0.184484 
1107.140384  	0.173915 
1109.069200  	0.163517 
1110.998016  	0.153804 
1112.926832  	0.145012 
1114.855648  	0.136530 
1116.784464  	0.128195 
1118.713280  	0.120838 
1120.642096  	0.114057 
1122.570912  	0.107621 
1124.499728  	0.101777 
1126.428544  	0.096235 
1128.357360  	0.091039 
1130.286176  	0.086038 
1132.214992  	0.081818 
1134.143808  	0.078275 
1136.072624  	0.075147 
1138.001440  	0.072131 
1139.930256  	0.069138 
1141.859072  	0.066325 
1143.787888  	0.063628 
1145.716704  	0.061551 
1147.645520  	0.060011 
1149.574336  	0.058636 
1151.503152  	0.057656 
1153.431968  	0.057501 
1155.360784  	0.057639 
1157.289600  	0.057918 
1159.218416  	0.058614 
1161.147232  	0.059771 
1163.076048  	0.061009 
1165.004864  	0.062568 
1166.933680  	0.064288 
1168.862496  	0.066193 
1170.791312  	0.068446 
1172.720128  	0.070753 
1174.648944  	0.073124 
1176.577760  	0.075749 
1178.506576  	0.078364 
1180.435392  	0.080871 
1182.364208  	0.083377 
1184.293024  	0.086134 
1186.221840  	0.088953 
1188.150656  	0.092099 
1190.079472  	0.095905 
1192.008288  	0.100203 
1193.937104  	0.104948 
1195.865920  	0.110375 
1197.794736  	0.116253 
1199.723552  	0.122739 
1201.652368  	0.129796 
1203.581184  	0.136737 
1205.510000  	0.143441 
1207.438816  	0.150250 
1209.367632  	0.157121 
1211.296448  	0.163531 
1213.225264  	0.169503 
1215.154080  	0.174553 
1217.082896  	0.179040 
1219.011712  	0.182662 
1220.940528  	0.186101 
1222.869344  	0.188680 
1224.798160  	0.190592 
1226.726976  	0.191821 
1228.655792  	0.192499 
1230.584608  	0.192019 
1232.513424  	0.190809 
1234.442240  	0.188216 
1236.371056  	0.184958 
1238.299872  	0.181122 
1240.228688  	0.177946 
1242.157504  	0.173158 
1244.086320  	0.166297 
1246.015136  	0.159812 
1247.943952  	0.154175 
1249.872768  	0.148342 
1251.801584  	0.141699 
1253.730400  	0.135029 
1255.659216  	0.128775 
1257.588032  	0.122568 
1259.516848  	0.116632 
1261.445664  	0.111084 
1263.374480  	0.105964 
1265.303296  	0.101239 
1267.232112  	0.097152 
1269.160928  	0.093918 
1271.089744  	0.091728 
1273.018560  	0.090469 
1274.947376  	0.089880 
1276.876192  	0.089460 
1278.805008  	0.088578 
1280.733824  	0.086833 
1282.662640  	0.083954 
1284.591456  	0.080237 
1286.520272  	0.076490 
1288.449088  	0.073540 
1290.377904  	0.071224 
1292.306720  	0.069344 
1294.235536  	0.067171 
1296.164352  	0.064110 
1298.093168  	0.060700 
1300.021984  	0.057361 
1301.950800  	0.054270 
1303.879616  	0.051694 
1305.808432  	0.049600 
1307.737248  	0.047908 
1309.666064  	0.046412 
1311.594880  	0.045434 
1313.523696  	0.045011 
1315.452512  	0.044910 
1317.381328  	0.045145 
1319.310144  	0.045829 
1321.238960  	0.046714 
1323.167776  	0.047620 
1325.096592  	0.048177 
1327.025408  	0.048292 
1328.954224  	0.047911 
1330.883040  	0.047299 
1332.811856  	0.046491 
1334.740672  	0.045588 
1336.669488  	0.044519 
1338.598304  	0.043803 
1340.527120  	0.043674 
1342.455936  	0.043511 
1344.384752  	0.043492 
1346.313568  	0.044062 
1348.242384  	0.045096 
1350.171200  	0.046728 
1352.100016  	0.048773 
1354.028832  	0.050765 
1355.957648  	0.052878 
1357.886464  	0.054965 
1359.815280  	0.056572 
1361.744096  	0.058253 
1363.672912  	0.060850 
1365.601728  	0.062597 
1367.530544  	0.063513 
1369.459360  	0.064554 
1371.388176  	0.064512 
1373.316992  	0.063758 
1375.245808  	0.063629 
1377.174624  	0.062988 
1379.103440  	0.061795 
1381.032256  	0.060552 
1382.961072  	0.059403 
1384.889888  	0.057862 
1386.818704  	0.056242 
1388.747520  	0.055232 
1390.676336  	0.054623 
1392.605152  	0.055308 
1394.533968  	0.055538 
1396.462784  	0.053192 
1398.391600  	0.052301 
1400.320416  	0.054416 
1402.249232  	0.055758 
1404.178048  	0.057183 
1406.106864  	0.059273 
1408.035680  	0.060640 
1409.964496  	0.061601 
1411.893312  	0.062721 
1413.822128  	0.063154 
1415.750944  	0.062801 
1417.679760  	0.061820 
1419.608576  	0.062069 
1421.537392  	0.061349 
1423.466208  	0.059579 
1425.395024  	0.058385 
1427.323840  	0.056250 
1429.252656  	0.054022 
1431.181472  	0.052941 
1433.110288  	0.052209 
1435.039104  	0.051104 
1436.967920  	0.052626 
1438.896736  	0.054167 
1440.825552  	0.054177 
1442.754368  	0.054496 
1444.683184  	0.054275 
1446.612000  	0.053874 
1448.540816  	0.054954 
1450.469632  	0.055632 
1452.398448  	0.055300 
1454.327264  	0.053954 
1456.256080  	0.052117 
1458.184896  	0.054103 
1460.113712  	0.055095 
1462.042528  	0.054856 
1463.971344  	0.054523 
1465.900160  	0.056975 
1467.828976  	0.058939 
1469.757792  	0.060023 
1471.686608  	0.061861 
1473.615424  	0.067649 
1475.544240  	0.071276 
1477.473056  	0.074327 
1479.401872  	0.075291 
1481.330688  	0.075743 
1483.259504  	0.075690 
1485.188320  	0.074077 
1487.117136  	0.071516 
1489.045952  	0.069319 
1490.974768  	0.067762 
1492.903584  	0.065041 
1494.832400  	0.060613 
1496.761216  	0.057011 
1498.690032  	0.054460 
1500.618848  	0.052414 
1502.547664  	0.049551 
1504.476480  	0.045269 
1506.405296  	0.042453 
1508.334112  	0.044576 
1510.262928  	0.043873 
1512.191744  	0.042817 
1514.120560  	0.041241 
1516.049376  	0.040127 
1517.978192  	0.040890 
1519.907008  	0.040567 
1521.835824  	0.043446 
1523.764640  	0.046600 
1525.693456  	0.048690 
1527.622272  	0.051458 
1529.551088  	0.052679 
1531.479904  	0.051974 
1533.408720  	0.051586 
1535.337536  	0.051629 
1537.266352  	0.047647 
1539.195168  	0.043010 
1541.123984  	0.042668 
1543.052800  	0.043176 
1544.981616  	0.042907 
1546.910432  	0.042374 
1548.839248  	0.040886 
1550.768064  	0.041188 
1552.696880  	0.040575 
1554.625696  	0.040636 
1556.554512  	0.038730 
1558.483328  	0.038179 
1560.412144  	0.047439 
1562.340960  	0.049674 
1564.269776  	0.051009 
1566.198592  	0.054327 
1568.127408  	0.056201 
1570.056224  	0.061924 
1571.985040  	0.066594 
1573.913856  	0.067322 
1575.842672  	0.068705 
1577.771488  	0.072525 
1579.700304  	0.072469 
1581.629120  	0.072280 
1583.557936  	0.072487 
1585.486752  	0.073924 
1587.415568  	0.076176 
1589.344384  	0.079950 
1591.273200  	0.084307 
1593.202016  	0.089459 
1595.130832  	0.094511 
1597.059648  	0.099548 
1598.988464  	0.103202 
1600.917280  	0.106152 
1602.846096  	0.107885 
1604.774912  	0.108871 
1606.703728  	0.108321 
1608.632544  	0.107861 
1610.561360  	0.107202 
1612.490176  	0.106844 
1614.418992  	0.105308 
1616.347808  	0.106452 
1618.276624  	0.110912 
1620.205440  	0.113541 
1622.134256  	0.116200 
1624.063072  	0.123638 
1625.991888  	0.129424 
1627.920704  	0.135924 
1629.849520  	0.143795 
1631.778336  	0.149508 
1633.707152  	0.152653 
1635.635968  	0.159869 
1637.564784  	0.168971 
1639.493600  	0.172800 
1641.422416  	0.175807 
1643.351232  	0.177278 
1645.280048  	0.176899 
1647.208864  	0.178984 
1649.137680  	0.180231 
1651.066496  	0.176657 
1652.995312  	0.174643 
1654.924128  	0.179104 
1656.852944  	0.177334 
1658.781760  	0.175218 
1660.710576  	0.172710 
1662.639392  	0.171153 
1664.568208  	0.170529 
1666.497024  	0.167967 
1668.425840  	0.165049 
1670.354656  	0.164587 
1672.283472  	0.163882 
1674.212288  	0.162337 
1676.141104  	0.163779 
1678.069920  	0.163717 
1679.998736  	0.162787 
1681.927552  	0.161100 
1683.856368  	0.160652 
1685.785184  	0.165022 
1687.714000  	0.163670 
1689.642816  	0.162223 
1691.571632  	0.160656 
1693.500448  	0.156973 
1695.429264  	0.152793 
1697.358080  	0.149990 
1699.286896  	0.145174 
1701.215712  	0.143361 
1703.144528  	0.139183 
1705.073344  	0.133869 
1707.002160  	0.129953 
1708.930976  	0.125407 
1710.859792  	0.119928 
1712.788608  	0.113500 
1714.717424  	0.106520 
1716.646240  	0.099641 
1718.575056  	0.094793 
1720.503872  	0.089577 
1722.432688  	0.083632 
1724.361504  	0.077499 
1726.290320  	0.071810 
1728.219136  	0.065870 
1730.147952  	0.060300 
1732.076768  	0.054229 
1734.005584  	0.049621 
1735.934400  	0.046273 
1737.863216  	0.041686 
1739.792032  	0.037272 
1741.720848  	0.034261 
1743.649664  	0.031084 
1745.578480  	0.028124 
1747.507296  	0.025045 
1749.436112  	0.023287 
1751.364928  	0.022838 
1753.293744  	0.022307 
1755.222560  	0.020166 
1757.151376  	0.019519 
1759.080192  	0.018369 
1761.009008  	0.017572 
1762.937824  	0.017869 
1764.866640  	0.017346 
1766.795456  	0.015937 
1768.724272  	0.015583 
1770.653088  	0.013687 
1772.581904  	0.014264 
1774.510720  	0.015262 
1776.439536  	0.015279 
1778.368352  	0.014807 
1780.297168  	0.014749 
1782.225984  	0.014702 
1784.154800  	0.014408 
1786.083616  	0.014609 
1788.012432  	0.014122 
1789.941248  	0.012541 
1791.870064  	0.012480 
1793.798880  	0.013490 
1795.727696  	0.013464 
1797.656512  	0.012898 
1799.585328  	0.012522 
1801.514144  	0.012755 
1803.442960  	0.012953 
1805.371776  	0.012635 
1807.300592  	0.012258 
1809.229408  	0.011606 
1811.158224  	0.011880 
1813.087040  	0.012090 
1815.015856  	0.011780 
1816.944672  	0.011532 
1818.873488  	0.011895 
1820.802304  	0.011844 
1822.731120  	0.011348 
1824.659936  	0.011031 
1826.588752  	0.011497 
1828.517568  	0.010754 
1830.446384  	0.011889 
1832.375200  	0.012369 
1834.304016  	0.012031 
1836.232832  	0.011720 
1838.161648  	0.012014 
1840.090464  	0.011844 
1842.019280  	0.010662 
1843.948096  	0.010407 
1845.876912  	0.011749 
1847.805728  	0.011718 
1849.734544  	0.011955 
1851.663360  	0.011649 
1853.592176  	0.011836 
1855.520992  	0.011758 
1857.449808  	0.012087 
1859.378624  	0.011856 
1861.307440  	0.011719 
1863.236256  	0.011468 
1865.165072  	0.011444 
1867.093888  	0.010762 
1869.022704  	0.011268 
1870.951520  	0.011836 
1872.880336  	0.012002 
1874.809152  	0.011743 
1876.737968  	0.011645 
1878.666784  	0.011451 
1880.595600  	0.011548 
1882.524416  	0.011734 
1884.453232  	0.011769 
1886.382048  	0.011181 
1888.310864  	0.011033 
1890.239680  	0.011645 
1892.168496  	0.012019 
1894.097312  	0.011529 
1896.026128  	0.011698 
1897.954944  	0.011345 
1899.883760  	0.011272 
1901.812576  	0.011130 
1903.741392  	0.011379 
1905.670208  	0.011417 
1907.599024  	0.011357 
1909.527840  	0.011332 
1911.456656  	0.012133 
1913.385472  	0.012245 
1915.314288  	0.011967 
1917.243104  	0.011467 
1919.171920  	0.011974 
1921.100736  	0.011980 
1923.029552  	0.012594 
1924.958368  	0.012133 
1926.887184  	0.012001 
1928.816000  	0.011607 
1930.744816  	0.011149 
1932.673632  	0.011164 
1934.602448  	0.012092 
1936.531264  	0.012428 
1938.460080  	0.012047 
1940.388896  	0.011420 
1942.317712  	0.011676 
1944.246528  	0.011622 
1946.175344  	0.012127 
1948.104160  	0.011808 
1950.032976  	0.011988 
1951.961792  	0.011941 
1953.890608  	0.011606 
1955.819424  	0.010549 
1957.748240  	0.010843 
1959.677056  	0.011614 
1961.605872  	0.011557 
1963.534688  	0.010957 
1965.463504  	0.011811 
1967.392320  	0.011811 
1969.321136  	0.011680 
1971.249952  	0.011828 
1973.178768  	0.012061 
1975.107584  	0.010213 
1977.036400  	0.010894 
1978.965216  	0.012995 
1980.894032  	0.013213 
1982.822848  	0.011420 
1984.751664  	0.011268 
1986.680480  	0.011377 
1988.609296  	0.011413 
1990.538112  	0.011052 
1992.466928  	0.012251 
1994.395744  	0.012181 
1996.324560  	0.012192 
1998.253376  	0.011459 
2000.182192  	0.011168 
2002.111008  	0.010622 
2004.039824  	0.010555 
2005.968640  	0.010999 
2007.897456  	0.012389 
2009.826272  	0.011728 
2011.755088  	0.011074 
2013.683904  	0.011345 
2015.612720  	0.012295 
2017.541536  	0.011521 
2019.470352  	0.011237 
2021.399168  	0.011924 
2023.327984  	0.013677 
2025.256800  	0.012695 
2027.185616  	0.011984 
2029.114432  	0.011147 
2031.043248  	0.012049 
2032.972064  	0.012255 
2034.900880  	0.013152 
2036.829696  	0.012308 
2038.758512  	0.011318 
2040.687328  	0.011940 
2042.616144  	0.012398 
2044.544960  	0.011851 
2046.473776  	0.012092 
2048.402592  	0.012389 
2050.331408  	0.013401 
2052.260224  	0.012690 
2054.189040  	0.012270 
2056.117856  	0.011785 
2058.046672  	0.011486 
2059.975488  	0.011496 
2061.904304  	0.011884 
2063.833120  	0.012662 
2065.761936  	0.013230 
2067.690752  	0.012421 
2069.619568  	0.011517 
2071.548384  	0.010873 
2073.477200  	0.011457 
2075.406016  	0.012607 
2077.334832  	0.012863 
2079.263648  	0.011896 
2081.192464  	0.011778 
2083.121280  	0.012266 
2085.050096  	0.012427 
2086.978912  	0.012117 
2088.907728  	0.011796 
2090.836544  	0.011189 
2092.765360  	0.011026 
2094.694176  	0.011485 
2096.622992  	0.012194 
2098.551808  	0.012157 
2100.480624  	0.012167 
2102.409440  	0.011943 
2104.338256  	0.012377 
2106.267072  	0.012620 
2108.195888  	0.012803 
2110.124704  	0.012984 
2112.053520  	0.013414 
2113.982336  	0.013026 
2115.911152  	0.012883 
2117.839968  	0.012389 
2119.768784  	0.011793 
2121.697600  	0.011397 
2123.626416  	0.011143 
2125.555232  	0.011101 
2127.484048  	0.011350 
2129.412864  	0.010612 
2131.341680  	0.009770 
2133.270496  	0.010582 
2135.199312  	0.011958 
2137.128128  	0.012279 
2139.056944  	0.012159 
2140.985760  	0.010758 
2142.914576  	0.010756 
2144.843392  	0.010939 
2146.772208  	0.011381 
2148.701024  	0.011644 
2150.629840  	0.012239 
2152.558656  	0.011906 
2154.487472  	0.010415 
2156.416288  	0.008918 
2158.345104  	0.011597 
2160.273920  	0.014740 
2162.202736  	0.015075 
2164.131552  	0.014299 
2166.060368  	0.015062 
2167.989184  	0.013713 
2169.918000  	0.012828 
2171.846816  	0.012660 
2173.775632  	0.013349 
2175.704448  	0.013780 
2177.633264  	0.013062 
2179.562080  	0.012055 
2181.490896  	0.012421 
2183.419712  	0.012807 
2185.348528  	0.013310 
2187.277344  	0.013161 
2189.206160  	0.013269 
2191.134976  	0.014091 
2193.063792  	0.014953 
2194.992608  	0.014462 
2196.921424  	0.013660 
2198.850240  	0.013800 
2200.779056  	0.013251 
2202.707872  	0.012710 
2204.636688  	0.013071 
2206.565504  	0.013396 
2208.494320  	0.014256 
2210.423136  	0.013511 
2212.351952  	0.013456 
2214.280768  	0.013354 
2216.209584  	0.013029 
2218.138400  	0.013132 
2220.067216  	0.013145 
2221.996032  	0.013587 
2223.924848  	0.013490 
2225.853664  	0.013508 
2227.782480  	0.013912 
2229.711296  	0.014206 
2231.640112  	0.014184 
2233.568928  	0.013360 
2235.497744  	0.013117 
2237.426560  	0.012830 
2239.355376  	0.013057 
2241.284192  	0.013091 
2243.213008  	0.013093 
2245.141824  	0.013326 
2247.070640  	0.013289 
2248.999456  	0.013131 
2250.928272  	0.013335 
2252.857088  	0.012792 
2254.785904  	0.012605 
2256.714720  	0.013465 
2258.643536  	0.013975 
2260.572352  	0.013427 
2262.501168  	0.013067 
2264.429984  	0.013022 
2266.358800  	0.013377 
2268.287616  	0.013634 
2270.216432  	0.013581 
2272.145248  	0.013297 
2274.074064  	0.013668 
2276.002880  	0.013858 
2277.931696  	0.014163 
2279.860512  	0.014420 
2281.789328  	0.014846 
2283.718144  	0.014877 
2285.646960  	0.014964 
2287.575776  	0.015040 
2289.504592  	0.014581 
2291.433408  	0.013930 
2293.362224  	0.013878 
2295.291040  	0.013947 
2297.219856  	0.014058 
2299.148672  	0.013973 
2301.077488  	0.013855 
2303.006304  	0.013776 
2304.935120  	0.013508 
2306.863936  	0.013154 
2308.792752  	0.013035 
2310.721568  	0.013187 
2312.650384  	0.013106 
2314.579200  	0.012665 
2316.508016  	0.012470 
2318.436832  	0.011876 
2320.365648  	0.011508 
2322.294464  	0.011384 
2324.223280  	0.010760 
2326.152096  	0.009212 
2328.080912  	0.008134 
2330.009728  	0.007431 
2331.938544  	0.007143 
2333.867360  	0.006513 
2335.796176  	0.005848 
2337.724992  	0.005725 
2339.653808  	0.005642 
2341.582624  	0.005640 
2343.511440  	0.007071 
2345.440256  	0.009261 
2347.369072  	0.010710 
2349.297888  	0.009396 
2351.226704  	0.006795 
2353.155520  	0.005070 
2355.084336  	0.003680 
2357.013152  	0.002731 
2358.941968  	0.002224 
2360.870784  	0.002298 
2362.799600  	0.002992 
2364.728416  	0.003527 
2366.657232  	0.004945 
2368.586048  	0.006566 
2370.514864  	0.008264 
2372.443680  	0.009890 
2374.372496  	0.011423 
2376.301312  	0.012735 
2378.230128  	0.013829 
2380.158944  	0.014317 
2382.087760  	0.014513 
2384.016576  	0.014552 
2385.945392  	0.014684 
2387.874208  	0.014514 
2389.803024  	0.014336 
2391.731840  	0.014288 
2393.660656  	0.014272 
2395.589472  	0.014415 
2397.518288  	0.014668 
2399.447104  	0.014694 
2401.375920  	0.014619 
2403.304736  	0.014538 
2405.233552  	0.014593 
2407.162368  	0.014845 
2409.091184  	0.014846 
2411.020000  	0.014768 
2412.948816  	0.014942 
2414.877632  	0.014965 
2416.806448  	0.015130 
2418.735264  	0.015278 
2420.664080  	0.015123 
2422.592896  	0.014920 
2424.521712  	0.014982 
2426.450528  	0.015123 
2428.379344  	0.015154 
2430.308160  	0.015145 
2432.236976  	0.015185 
2434.165792  	0.015479 
2436.094608  	0.015906 
2438.023424  	0.015972 
2439.952240  	0.015967 
2441.881056  	0.015955 
2443.809872  	0.016054 
2445.738688  	0.016137 
2447.667504  	0.016143 
2449.596320  	0.016048 
2451.525136  	0.016031 
2453.453952  	0.016043 
2455.382768  	0.016238 
2457.311584  	0.016385 
2459.240400  	0.016434 
2461.169216  	0.016313 
2463.098032  	0.016333 
2465.026848  	0.016219 
2466.955664  	0.016158 
2468.884480  	0.016087 
2470.813296  	0.016324 
2472.742112  	0.016372 
2474.670928  	0.016289 
2476.599744  	0.016376 
2478.528560  	0.016590 
2480.457376  	0.016814 
2482.386192  	0.016786 
2484.315008  	0.016785 
2486.243824  	0.016826 
2488.172640  	0.016768 
2490.101456  	0.017089 
2492.030272  	0.017427 
2493.959088  	0.017141 
2495.887904  	0.016873 
2497.816720  	0.017074 
2499.745536  	0.017149 
2501.674352  	0.017195 
2503.603168  	0.017252 
2505.531984  	0.017300 
2507.460800  	0.017396 
2509.389616  	0.017370 
2511.318432  	0.017145 
2513.247248  	0.017249 
2515.176064  	0.017427 
2517.104880  	0.017679 
2519.033696  	0.017811 
2520.962512  	0.017783 
2522.891328  	0.017909 
2524.820144  	0.018009 
2526.748960  	0.018086 
2528.677776  	0.018360 
2530.606592  	0.018336 
2532.535408  	0.018225 
2534.464224  	0.018288 
2536.393040  	0.018228 
2538.321856  	0.018078 
2540.250672  	0.018275 
2542.179488  	0.018387 
2544.108304  	0.018287 
2546.037120  	0.018317 
2547.965936  	0.018828 
2549.894752  	0.018956 
2551.823568  	0.018960 
2553.752384  	0.018914 
2555.681200  	0.018989 
2557.610016  	0.019013 
2559.538832  	0.019198 
2561.467648  	0.019405 
2563.396464  	0.019660 
2565.325280  	0.020091 
2567.254096  	0.020191 
2569.182912  	0.019812 
2571.111728  	0.019564 
2573.040544  	0.019459 
2574.969360  	0.019522 
2576.898176  	0.019803 
2578.826992  	0.020135 
2580.755808  	0.020241 
2582.684624  	0.020037 
2584.613440  	0.019984 
2586.542256  	0.020256 
2588.471072  	0.020440 
2590.399888  	0.020529 
2592.328704  	0.020606 
2594.257520  	0.020901 
2596.186336  	0.021255 
2598.115152  	0.021278 
2600.043968  	0.021050 
2601.972784  	0.021030 
2603.901600  	0.021309 
2605.830416  	0.021538 
2607.759232  	0.021419 
2609.688048  	0.021497 
2611.616864  	0.021688 
2613.545680  	0.021733 
2615.474496  	0.021755 
2617.403312  	0.021892 
2619.332128  	0.022142 
2621.260944  	0.022299 
2623.189760  	0.022334 
2625.118576  	0.022419 
2627.047392  	0.022553 
2628.976208  	0.022819 
2630.905024  	0.022826 
2632.833840  	0.023011 
2634.762656  	0.023381 
2636.691472  	0.023460 
2638.620288  	0.023436 
2640.549104  	0.023514 
2642.477920  	0.023603 
2644.406736  	0.023629 
2646.335552  	0.023800 
2648.264368  	0.023915 
2650.193184  	0.024039 
2652.122000  	0.024315 
2654.050816  	0.024514 
2655.979632  	0.024460 
2657.908448  	0.024474 
2659.837264  	0.024550 
2661.766080  	0.024548 
2663.694896  	0.024645 
2665.623712  	0.024603 
2667.552528  	0.024512 
2669.481344  	0.024758 
2671.410160  	0.025032 
2673.338976  	0.025106 
2675.267792  	0.025170 
2677.196608  	0.025329 
2679.125424  	0.025479 
2681.054240  	0.025493 
2682.983056  	0.025657 
2684.911872  	0.025850 
2686.840688  	0.025943 
2688.769504  	0.026121 
2690.698320  	0.026253 
2692.627136  	0.026451 
2694.555952  	0.026549 
2696.484768  	0.026440 
2698.413584  	0.026541 
2700.342400  	0.026641 
2702.271216  	0.026815 
2704.200032  	0.027125 
2706.128848  	0.027356 
2708.057664  	0.027453 
2709.986480  	0.027487 
2711.915296  	0.027564 
2713.844112  	0.027692 
2715.772928  	0.027845 
2717.701744  	0.028096 
2719.630560  	0.028201 
2721.559376  	0.028286 
2723.488192  	0.028433 
2725.417008  	0.028725 
2727.345824  	0.028898 
2729.274640  	0.028887 
2731.203456  	0.029009 
2733.132272  	0.029245 
2735.061088  	0.029451 
2736.989904  	0.029540 
2738.918720  	0.029645 
2740.847536  	0.029726 
2742.776352  	0.029971 
2744.705168  	0.030308 
2746.633984  	0.030422 
2748.562800  	0.030426 
2750.491616  	0.030487 
2752.420432  	0.030572 
2754.349248  	0.030602 
2756.278064  	0.030807 
2758.206880  	0.030912 
2760.135696  	0.031082 
2762.064512  	0.031177 
2763.993328  	0.031114 
2765.922144  	0.031069 
2767.850960  	0.031187 
2769.779776  	0.031327 
2771.708592  	0.031433 
2773.637408  	0.031462 
2775.566224  	0.031555 
2777.495040  	0.031701 
2779.423856  	0.031782 
2781.352672  	0.031870 
2783.281488  	0.032024 
2785.210304  	0.032185 
2787.139120  	0.032452 
2789.067936  	0.032621 
2790.996752  	0.032683 
2792.925568  	0.032901 
2794.854384  	0.033016 
2796.783200  	0.033087 
2798.712016  	0.033064 
2800.640832  	0.033095 
2802.569648  	0.033321 
2804.498464  	0.033486 
2806.427280  	0.033668 
2808.356096  	0.033832 
2810.284912  	0.033995 
2812.213728  	0.034038 
2814.142544  	0.034172 
2816.071360  	0.034482 
2818.000176  	0.034579 
2819.928992  	0.034599 
2821.857808  	0.034791 
2823.786624  	0.034989 
2825.715440  	0.034990 
2827.644256  	0.035021 
2829.573072  	0.035210 
2831.501888  	0.035338 
2833.430704  	0.035497 
2835.359520  	0.035721 
2837.288336  	0.035828 
2839.217152  	0.035948 
2841.145968  	0.036019 
2843.074784  	0.036229 
2845.003600  	0.036644 
2846.932416  	0.037113 
2848.861232  	0.037559 
2850.790048  	0.038030 
2852.718864  	0.038632 
2854.647680  	0.039171 
2856.576496  	0.039800 
2858.505312  	0.040460 
2860.434128  	0.041099 
2862.362944  	0.041826 
2864.291760  	0.042645 
2866.220576  	0.043412 
2868.149392  	0.044401 
2870.078208  	0.045337 
2872.007024  	0.045966 
2873.935840  	0.046559 
2875.864656  	0.047416 
2877.793472  	0.048618 
2879.722288  	0.049809 
2881.651104  	0.051078 
2883.579920  	0.052144 
2885.508736  	0.052717 
2887.437552  	0.052932 
2889.366368  	0.053044 
2891.295184  	0.053455 
2893.224000  	0.053884 
2895.152816  	0.054270 
2897.081632  	0.054497 
2899.010448  	0.055656 
2900.939264  	0.057220 
2902.868080  	0.056558 
2904.796896  	0.055700 
2906.725712  	0.055652 
2908.654528  	0.055631 
2910.583344  	0.055824 
2912.512160  	0.056001 
2914.440976  	0.055896 
2916.369792  	0.055784 
2918.298608  	0.056039 
2920.227424  	0.056672 
2922.156240  	0.057158 
2924.085056  	0.057498 
2926.013872  	0.057977 
2927.942688  	0.058521 
2929.871504  	0.058907 
2931.800320  	0.059193 
2933.729136  	0.059496 
2935.657952  	0.059869 
2937.586768  	0.060338 
2939.515584  	0.060688 
2941.444400  	0.061068 
2943.373216  	0.061544 
2945.302032  	0.061843 
2947.230848  	0.061939 
2949.159664  	0.062242 
2951.088480  	0.062864 
2953.017296  	0.063393 
2954.946112  	0.063801 
2956.874928  	0.064252 
2958.803744  	0.064559 
2960.732560  	0.064742 
2962.661376  	0.065055 
2964.590192  	0.065720 
2966.519008  	0.066571 
2968.447824  	0.067188 
2970.376640  	0.067686 
2972.305456  	0.067752 
2974.234272  	0.067258 
2976.163088  	0.066650 
2978.091904  	0.066292 
2980.020720  	0.066146 
2981.949536  	0.065895 
2983.878352  	0.065900 
2985.807168  	0.066552 
2987.735984  	0.067435 
2989.664800  	0.067204 
2991.593616  	0.064601 
2993.522432  	0.062976 
2995.451248  	0.062856 
2997.380064  	0.062396 
2999.308880  	0.061593 
3001.237696  	0.060727 
3003.166512  	0.059799 
3005.095328  	0.058892 
3007.024144  	0.058077 
3008.952960  	0.057214 
3010.881776  	0.056287 
3012.810592  	0.055463 
3014.739408  	0.054586 
3016.668224  	0.053927 
3018.597040  	0.053362 
3020.525856  	0.052694 
3022.454672  	0.052165 
3024.383488  	0.051661 
3026.312304  	0.051289 
3028.241120  	0.050944 
3030.169936  	0.050494 
3032.098752  	0.050384 
3034.027568  	0.049996 
3035.956384  	0.049608 
3037.885200  	0.049578 
3039.814016  	0.049616 
3041.742832  	0.049740 
3043.671648  	0.049787 
3045.600464  	0.049797 
3047.529280  	0.049848 
3049.458096  	0.049960 
3051.386912  	0.049978 
3053.315728  	0.050177 
3055.244544  	0.050506 
3057.173360  	0.051028 
3059.102176  	0.051383 
3061.030992  	0.051633 
3062.959808  	0.051862 
3064.888624  	0.052275 
3066.817440  	0.052778 
3068.746256  	0.053043 
3070.675072  	0.053240 
3072.603888  	0.053730 
3074.532704  	0.054345 
3076.461520  	0.054592 
3078.390336  	0.054752 
3080.319152  	0.055159 
3082.247968  	0.055662 
3084.176784  	0.056108 
3086.105600  	0.056363 
3088.034416  	0.056683 
3089.963232  	0.057114 
3091.892048  	0.057558 
3093.820864  	0.057776 
3095.749680  	0.058097 
3097.678496  	0.058357 
3099.607312  	0.058727 
3101.536128  	0.059158 
3103.464944  	0.059619 
3105.393760  	0.059993 
3107.322576  	0.060245 
3109.251392  	0.060552 
3111.180208  	0.060891 
3113.109024  	0.061101 
3115.037840  	0.061273 
3116.966656  	0.061493 
3118.895472  	0.061769 
3120.824288  	0.061943 
3122.753104  	0.062294 
3124.681920  	0.062705 
3126.610736  	0.062937 
3128.539552  	0.063073 
3130.468368  	0.063103 
3132.397184  	0.063255 
3134.326000  	0.063643 
3136.254816  	0.063945 
3138.183632  	0.064183 
3140.112448  	0.064391 
3142.041264  	0.064520 
3143.970080  	0.064767 
3145.898896  	0.065093 
3147.827712  	0.065389 
3149.756528  	0.065701 
3151.685344  	0.066002 
3153.614160  	0.066302 
3155.542976  	0.066462 
3157.471792  	0.066763 
3159.400608  	0.067348 
3161.329424  	0.067675 
3163.258240  	0.067870 
3165.187056  	0.068061 
3167.115872  	0.068223 
3169.044688  	0.068451 
3170.973504  	0.068591 
3172.902320  	0.068808 
3174.831136  	0.069036 
3176.759952  	0.069244 
3178.688768  	0.069468 
3180.617584  	0.069553 
3182.546400  	0.069371 
3184.475216  	0.069634 
3186.404032  	0.069915 
3188.332848  	0.069885 
3190.261664  	0.070119 
3192.190480  	0.070500 
3194.119296  	0.070395 
3196.048112  	0.070122 
3197.976928  	0.070221 
3199.905744  	0.070244 
3201.834560  	0.070272 
3203.763376  	0.070326 
3205.692192  	0.070241 
3207.621008  	0.070051 
3209.549824  	0.069965 
3211.478640  	0.069811 
3213.407456  	0.069616 
3215.336272  	0.069615 
3217.265088  	0.069480 
3219.193904  	0.069323 
3221.122720  	0.069178 
3223.051536  	0.068938 
3224.980352  	0.068685 
3226.909168  	0.068487 
3228.837984  	0.068213 
3230.766800  	0.068171 
3232.695616  	0.068267 
3234.624432  	0.068034 
3236.553248  	0.067832 
3238.482064  	0.067752 
3240.410880  	0.067773 
3242.339696  	0.067742 
3244.268512  	0.067615 
3246.197328  	0.067650 
3248.126144  	0.067632 
3250.054960  	0.067585 
3251.983776  	0.067439 
3253.912592  	0.067444 
3255.841408  	0.067572 
3257.770224  	0.067700 
3259.699040  	0.067802 
3261.627856  	0.067943 
3263.556672  	0.068081 
3265.485488  	0.068128 
3267.414304  	0.068036 
3269.343120  	0.068176 
3271.271936  	0.068447 
3273.200752  	0.068556 
3275.129568  	0.068727 
3277.058384  	0.068832 
3278.987200  	0.068844 
3280.916016  	0.068848 
3282.844832  	0.068930 
3284.773648  	0.069046 
3286.702464  	0.069146 
3288.631280  	0.069356 
3290.560096  	0.069438 
3292.488912  	0.069639 
3294.417728  	0.069815 
3296.346544  	0.069999 
3298.275360  	0.070118 
3300.204176  	0.070289 
3302.132992  	0.070470 
3304.061808  	0.070768 
3305.990624  	0.071074 
3307.919440  	0.071225 
3309.848256  	0.071336 
3311.777072  	0.071390 
3313.705888  	0.071626 
3315.634704  	0.071942 
3317.563520  	0.072188 
3319.492336  	0.072366 
3321.421152  	0.072445 
3323.349968  	0.072621 
3325.278784  	0.072810 
3327.207600  	0.072879 
3329.136416  	0.072845 
3331.065232  	0.072779 
3332.994048  	0.072824 
3334.922864  	0.072855 
3336.851680  	0.072835 
3338.780496  	0.072781 
3340.709312  	0.072641 
3342.638128  	0.072613 
3344.566944  	0.072529 
3346.495760  	0.072402 
3348.424576  	0.072241 
3350.353392  	0.071893 
3352.282208  	0.071510 
3354.211024  	0.071361 
3356.139840  	0.071267 
3358.068656  	0.071001 
3359.997472  	0.070761 
3361.926288  	0.070586 
3363.855104  	0.070265 
3365.783920  	0.070024 
3367.712736  	0.069796 
3369.641552  	0.069341 
3371.570368  	0.068976 
3373.499184  	0.068830 
3375.428000  	0.068553 
3377.356816  	0.068214 
3379.285632  	0.067990 
3381.214448  	0.067767 
3383.143264  	0.067449 
3385.072080  	0.067315 
3387.000896  	0.067036 
3388.929712  	0.066730 
3390.858528  	0.066422 
3392.787344  	0.066305 
3394.716160  	0.066000 
3396.644976  	0.065513 
3398.573792  	0.065249 
3400.502608  	0.064802 
3402.431424  	0.064439 
3404.360240  	0.064016 
3406.289056  	0.063645 
3408.217872  	0.063251 
3410.146688  	0.062894 
3412.075504  	0.062876 
3414.004320  	0.062926 
3415.933136  	0.062416 
3417.861952  	0.061651 
3419.790768  	0.061311 
3421.719584  	0.061250 
3423.648400  	0.060859 
3425.577216  	0.060518 
3427.506032  	0.060255 
3429.434848  	0.059724 
3431.363664  	0.059385 
3433.292480  	0.059247 
3435.221296  	0.058953 
3437.150112  	0.058455 
3439.078928  	0.058123 
3441.007744  	0.057690 
3442.936560  	0.057532 
3444.865376  	0.057065 
3446.794192  	0.056335 
3448.723008  	0.056232 
3450.651824  	0.055859 
3452.580640  	0.055397 
3454.509456  	0.055051 
3456.438272  	0.054580 
3458.367088  	0.054110 
3460.295904  	0.053775 
3462.224720  	0.053347 
3464.153536  	0.052788 
3466.082352  	0.052493 
3468.011168  	0.052285 
3469.939984  	0.051669 
3471.868800  	0.051041 
3473.797616  	0.050659 
3475.726432  	0.050318 
3477.655248  	0.049589 
3479.584064  	0.048866 
3481.512880  	0.048679 
3483.441696  	0.048358 
3485.370512  	0.047445 
3487.299328  	0.046965 
3489.228144  	0.046805 
3491.156960  	0.046168 
3493.085776  	0.045514 
3495.014592  	0.045232 
3496.943408  	0.045103 
3498.872224  	0.044419 
3500.801040  	0.043484 
3502.729856  	0.043128 
3504.658672  	0.043111 
3506.587488  	0.042302 
3508.516304  	0.041772 
3510.445120  	0.041938 
3512.373936  	0.041768 
3514.302752  	0.041223 
3516.231568  	0.040560 
3518.160384  	0.040117 
3520.089200  	0.039861 
3522.018016  	0.039213 
3523.946832  	0.039005 
3525.875648  	0.038790 
3527.804464  	0.038542 
3529.733280  	0.038319 
3531.662096  	0.037857 
3533.590912  	0.037214 
3535.519728  	0.037012 
3537.448544  	0.037077 
3539.377360  	0.036692 
3541.306176  	0.035843 
3543.234992  	0.034943 
3545.163808  	0.034986 
3547.092624  	0.035316 
3549.021440  	0.034604 
3550.950256  	0.033493 
3552.879072  	0.033825 
3554.807888  	0.033922 
3556.736704  	0.033254 
3558.665520  	0.032770 
3560.594336  	0.032490 
3562.523152  	0.031751 
3564.451968  	0.030347 
3566.380784  	0.030206 
3568.309600  	0.032028 
3570.238416  	0.031687 
3572.167232  	0.030225 
3574.096048  	0.029461 
3576.024864  	0.029256 
3577.953680  	0.028966 
3579.882496  	0.028550 
3581.811312  	0.028114 
3583.740128  	0.026939 
3585.668944  	0.025447 
3587.597760  	0.026478 
3589.526576  	0.027586 
3591.455392  	0.025805 
3593.384208  	0.024845 
3595.313024  	0.024976 
3597.241840  	0.024543 
3599.170656  	0.023541 
3601.099472  	0.023516 
3603.028288  	0.023337 
3604.957104  	0.021735 
3606.885920  	0.020543 
3608.814736  	0.021705 
3610.743552  	0.021142 
3612.672368  	0.019925 
3614.601184  	0.020299 
3616.530000  	0.018842 
3618.458816  	0.018467 
3620.387632  	0.020281 
3622.316448  	0.019741 
3624.245264  	0.017948 
3626.174080  	0.015468 
3628.102896  	0.014757 
3630.031712  	0.019254 
3631.960528  	0.018173 
3633.889344  	0.017189 
3635.818160  	0.016985 
3637.746976  	0.016580 
3639.675792  	0.016838 
3641.604608  	0.016606 
3643.533424  	0.015628 
3645.462240  	0.012999 
3647.391056  	0.011669 
3649.319872  	0.013946 
3651.248688  	0.017730 
3653.177504  	0.016543 
3655.106320  	0.014732 
3657.035136  	0.017007 
3658.963952  	0.017131 
3660.892768  	0.016235 
3662.821584  	0.015921 
3664.750400  	0.015203 
3666.679216  	0.013085 
3668.608032  	0.011133 
3670.536848  	0.013451 
3672.465664  	0.012507 
3674.394480  	0.009893 
3676.323296  	0.015808 
3678.252112  	0.015223 
3680.180928  	0.013695 
3682.109744  	0.013213 
3684.038560  	0.012572 
3685.967376  	0.010337 
3687.896192  	0.009125 
3689.825008  	0.011521 
3691.753824  	0.012854 
3693.682640  	0.012178 
3695.611456  	0.010857 
3697.540272  	0.010249 
3699.469088  	0.008837 
3701.397904  	0.009181 
3703.326720  	0.009954 
3705.255536  	0.008579 
3707.184352  	0.006531 
3709.113168  	0.005145 
3711.041984  	0.006199 
3712.970800  	0.009071 
3714.899616  	0.008885 
3716.828432  	0.007417 
3718.757248  	0.006628 
3720.686064  	0.006086 
3722.614880  	0.006536 
3724.543696  	0.006634 
3726.472512  	0.007325 
3728.401328  	0.007103 
3730.330144  	0.004267 
3732.258960  	0.003406 
3734.187776  	0.003716 
3736.116592  	0.006847 
3738.045408  	0.007919 
3739.974224  	0.006030 
3741.903040  	0.003302 
3743.831856  	0.003931 
3745.760672  	0.008410 
3747.689488  	0.004311 
3749.618304  	0.003225 
3751.547120  	0.006346 
3753.475936  	0.009060 
3755.404752  	0.007194 
3757.333568  	0.005810 
3759.262384  	0.006513 
3761.191200  	0.008333 
3763.120016  	0.007096 
3765.048832  	0.006666 
3766.977648  	0.006852 
3768.906464  	0.006369 
3770.835280  	0.008342 
3772.764096  	0.008566 
3774.692912  	0.007695 
3776.621728  	0.006530 
3778.550544  	0.006153 
3780.479360  	0.007995 
3782.408176  	0.007686 
3784.336992  	0.007438 
3786.265808  	0.007998 
3788.194624  	0.007982 
3790.123440  	0.007800 
3792.052256  	0.007664 
3793.981072  	0.006330 
3795.909888  	0.005912 
3797.838704  	0.006397 
3799.767520  	0.004248 
3801.696336  	0.006731 
3803.625152  	0.008104 
3805.553968  	0.005569 
3807.482784  	0.007959 
3809.411600  	0.008855 
3811.340416  	0.007610 
3813.269232  	0.005598 
3815.198048  	0.004772 
3817.126864  	0.007038 
3819.055680  	0.004370 
3820.984496  	0.005873 
3822.913312  	0.009454 
3824.842128  	0.007352 
3826.770944  	0.007223 
3828.699760  	0.007058 
3830.628576  	0.005999 
3832.557392  	0.006356 
3834.486208  	0.005360 
3836.415024  	0.004545 
3838.343840  	0.006255 
3840.272656  	0.007244 
3842.201472  	0.007166 
3844.130288  	0.007891 
3846.059104  	0.008185 
3847.987920  	0.006735 
3849.916736  	0.004197 
3851.845552  	0.001581 
3853.774368  	0.007548 
3855.703184  	0.010647 
3857.632000  	0.008456 
3859.560816  	0.006735 
3861.489632  	0.005843 
3863.418448  	0.006015 
3865.347264  	0.007563 
3867.276080  	0.006246 
3869.204896  	0.005671 
3871.133712  	0.008785 
3873.062528  	0.007494 
3874.991344  	0.008650 
3876.920160  	0.007685 
3878.848976  	0.005803 
3880.777792  	0.007384 
3882.706608  	0.007558 
3884.635424  	0.006470 
3886.564240  	0.009067 
3888.493056  	0.007548 
3890.421872  	0.006361 
3892.350688  	0.008319 
3894.279504  	0.008256 
3896.208320  	0.006718 
3898.137136  	0.005809 
3900.065952  	0.006375 
3901.994768  	0.006693 
3903.923584  	0.008034 
3905.852400  	0.009516 
3907.781216  	0.008875 
3909.710032  	0.008114 
3911.638848  	0.007852 
3913.567664  	0.007558 
3915.496480  	0.007168 
3917.425296  	0.008184 
3919.354112  	0.008590 
3921.282928  	0.008394 
3923.211744  	0.007802 
3925.140560  	0.008351 
3927.069376  	0.007992 
3928.998192  	0.007138 
3930.927008  	0.007462 
3932.855824  	0.008535 
3934.784640  	0.008620 
3936.713456  	0.008228 
3938.642272  	0.008116 
3940.571088  	0.007394 
3942.499904  	0.007887 
3944.428720  	0.008706 
3946.357536  	0.007951 
3948.286352  	0.007876 
3950.215168  	0.008225 
3952.143984  	0.008278 
3954.072800  	0.008106 
3956.001616  	0.008037 
3957.930432  	0.008213 
3959.859248  	0.008394 
3961.788064  	0.008565 
3963.716880  	0.008662 
3965.645696  	0.008494 
3967.574512  	0.008537 
3969.503328  	0.008594 
3971.432144  	0.008499 
3973.360960  	0.008465 
3975.289776  	0.008657 
3977.218592  	0.008748 
3979.147408  	0.008681 
3981.076224  	0.008585 
3983.005040  	0.008632 
3984.933856  	0.008654 
3986.862672  	0.008660 
3988.791488  	0.008505 
3990.720304  	0.008544 
3992.649120  	0.008584 
3994.577936  	0.008546 
3996.506752  	0.008566 
3998.435568  	0.008667 
4000.364384  	0.008733 