##TITLE=No Description
##DATA TYPE=INFRARED SPECTRUM
##XUNITS=1/CM
##YUNITS=Abs
399.264912  	0.604029 
401.193728  	0.584025 
403.122544  	0.571073 
405.051360  	0.549090 
406.980176  	0.538279 
408.908992  	0.535676 
410.837808  	0.549853 
412.766624  	0.561016 
414.695440  	0.562666 
416.624256  	0.564491 
418.553072  	0.580195 
420.481888  	0.558771 
422.410704  	0.558582 
424.339520  	0.544168 
426.268336  	0.535484 
428.197152  	0.534851 
430.125968  	0.538127 
432.054784  	0.533326 
433.983600  	0.531572 
435.912416  	0.522623 
437.841232  	0.523221 
439.770048  	0.515677 
441.698864  	0.509310 
443.627680  	0.507822 
445.556496  	0.512183 
447.485312  	0.508689 
449.414128  	0.507815 
451.342944  	0.504984 
453.271760  	0.508545 
455.200576  	0.505030 
457.129392  	0.499769 
459.058208  	0.497279 
460.987024  	0.504668 
462.915840  	0.503217 
464.844656  	0.506199 
466.773472  	0.504458 
468.702288  	0.501354 
470.631104  	0.496293 
472.559920  	0.498167 
474.488736  	0.496799 
476.417552  	0.501648 
478.346368  	0.501431 
480.275184  	0.499044 
482.204000  	0.493963 
484.132816  	0.493579 
486.061632  	0.492623 
487.990448  	0.493690 
489.919264  	0.492255 
491.848080  	0.491610 
493.776896  	0.488883 
495.705712  	0.490125 
497.634528  	0.486027 
499.563344  	0.484101 
501.492160  	0.482200 
503.420976  	0.482416 
505.349792  	0.482443 
507.278608  	0.484866 
509.207424  	0.484123 
511.136240  	0.484391 
513.065056  	0.483732 
514.993872  	0.484244 
516.922688  	0.481645 
518.851504  	0.482318 
520.780320  	0.482266 
522.709136  	0.482197 
524.637952  	0.477347 
526.566768  	0.474980 
528.495584  	0.473463 
530.424400  	0.471394 
532.353216  	0.467242 
534.282032  	0.464489 
536.210848  	0.461918 
538.139664  	0.461018 
540.068480  	0.457196 
541.997296  	0.452880 
543.926112  	0.448678 
545.854928  	0.446055 
547.783744  	0.441477 
549.712560  	0.438647 
551.641376  	0.435538 
553.570192  	0.432734 
555.499008  	0.428959 
557.427824  	0.426991 
559.356640  	0.422900 
561.285456  	0.420142 
563.214272  	0.416890 
565.143088  	0.414176 
567.071904  	0.410164 
569.000720  	0.407289 
570.929536  	0.402616 
572.858352  	0.399887 
574.787168  	0.397469 
576.715984  	0.394793 
578.644800  	0.390881 
580.573616  	0.388160 
582.502432  	0.385228 
584.431248  	0.382940 
586.360064  	0.380330 
588.288880  	0.377189 
590.217696  	0.374526 
592.146512  	0.373325 
594.075328  	0.371562 
596.004144  	0.369664 
597.932960  	0.367943 
599.861776  	0.366757 
601.790592  	0.365405 
603.719408  	0.364234 
605.648224  	0.361921 
607.577040  	0.361299 
609.505856  	0.360950 
611.434672  	0.359853 
613.363488  	0.357492 
615.292304  	0.355434 
617.221120  	0.352916 
619.149936  	0.351582 
621.078752  	0.349373 
623.007568  	0.347100 
624.936384  	0.344961 
626.865200  	0.344357 
628.794016  	0.343614 
630.722832  	0.342237 
632.651648  	0.340618 
634.580464  	0.339642 
636.509280  	0.339479 
638.438096  	0.339081 
640.366912  	0.338075 
642.295728  	0.336432 
644.224544  	0.333763 
646.153360  	0.331001 
648.082176  	0.327497 
650.010992  	0.325174 
651.939808  	0.321793 
653.868624  	0.318384 
655.797440  	0.314888 
657.726256  	0.311873 
659.655072  	0.308781 
661.583888  	0.305896 
663.512704  	0.302313 
665.441520  	0.298403 
667.370336  	0.293463 
669.299152  	0.290296 
671.227968  	0.289423 
673.156784  	0.287401 
675.085600  	0.284996 
677.014416  	0.282870 
678.943232  	0.281011 
680.872048  	0.279783 
682.800864  	0.277600 
684.729680  	0.276001 
686.658496  	0.274275 
688.587312  	0.272423 
690.516128  	0.270655 
692.444944  	0.269261 
694.373760  	0.267256 
696.302576  	0.265795 
698.231392  	0.263770 
700.160208  	0.261259 
702.089024  	0.258807 
704.017840  	0.257074 
705.946656  	0.254611 
707.875472  	0.252625 
709.804288  	0.250537 
711.733104  	0.248533 
713.661920  	0.246867 
715.590736  	0.246301 
717.519552  	0.245726 
719.448368  	0.245491 
721.377184  	0.245872 
723.306000  	0.246203 
725.234816  	0.245582 
727.163632  	0.244092 
729.092448  	0.242127 
731.021264  	0.239928 
732.950080  	0.237147 
734.878896  	0.234430 
736.807712  	0.232080 
738.736528  	0.230217 
740.665344  	0.228569 
742.594160  	0.227248 
744.522976  	0.225355 
746.451792  	0.224400 
748.380608  	0.223820 
750.309424  	0.223100 
752.238240  	0.221933 
754.167056  	0.220916 
756.095872  	0.219923 
758.024688  	0.218931 
759.953504  	0.217951 
761.882320  	0.217669 
763.811136  	0.217689 
765.739952  	0.217072 
767.668768  	0.215665 
769.597584  	0.214138 
771.526400  	0.213463 
773.455216  	0.214542 
775.384032  	0.216457 
777.312848  	0.219431 
779.241664  	0.222102 
781.170480  	0.222304 
783.099296  	0.219375 
785.028112  	0.214862 
786.956928  	0.209888 
788.885744  	0.205905 
790.814560  	0.202493 
792.743376  	0.200091 
794.672192  	0.198582 
796.601008  	0.197541 
798.529824  	0.195888 
800.458640  	0.192948 
802.387456  	0.189841 
804.316272  	0.188200 
806.245088  	0.187291 
808.173904  	0.186595 
810.102720  	0.186294 
812.031536  	0.186219 
813.960352  	0.186025 
815.889168  	0.185596 
817.817984  	0.185166 
819.746800  	0.184713 
821.675616  	0.184093 
823.604432  	0.183714 
825.533248  	0.182750 
827.462064  	0.181543 
829.390880  	0.180409 
831.319696  	0.179279 
833.248512  	0.177647 
835.177328  	0.175807 
837.106144  	0.173545 
839.034960  	0.171080 
840.963776  	0.168409 
842.892592  	0.166234 
844.821408  	0.163713 
846.750224  	0.161298 
848.679040  	0.159512 
850.607856  	0.157624 
852.536672  	0.156139 
854.465488  	0.154772 
856.394304  	0.153309 
858.323120  	0.152078 
860.251936  	0.150939 
862.180752  	0.149324 
864.109568  	0.147852 
866.038384  	0.146647 
867.967200  	0.145118 
869.896016  	0.143693 
871.824832  	0.142295 
873.753648  	0.141777 
875.682464  	0.141774 
877.611280  	0.142053 
879.540096  	0.142251 
881.468912  	0.142765 
883.397728  	0.143107 
885.326544  	0.143075 
887.255360  	0.142728 
889.184176  	0.142048 
891.112992  	0.141150 
893.041808  	0.139512 
894.970624  	0.137330 
896.899440  	0.134993 
898.828256  	0.131877 
900.757072  	0.128727 
902.685888  	0.126035 
904.614704  	0.124488 
906.543520  	0.124000 
908.472336  	0.124354 
910.401152  	0.125469 
912.329968  	0.127193 
914.258784  	0.129179 
916.187600  	0.131156 
918.116416  	0.132441 
920.045232  	0.132789 
921.974048  	0.132188 
923.902864  	0.131396 
925.831680  	0.130288 
927.760496  	0.129140 
929.689312  	0.128168 
931.618128  	0.127931 
933.546944  	0.127888 
935.475760  	0.127625 
937.404576  	0.127412 
939.333392  	0.127628 
941.262208  	0.128206 
943.191024  	0.129549 
945.119840  	0.132280 
947.048656  	0.135720 
948.977472  	0.140024 
950.906288  	0.145246 
952.835104  	0.150890 
954.763920  	0.156526 
956.692736  	0.161780 
958.621552  	0.166284 
960.550368  	0.169097 
962.479184  	0.170416 
964.408000  	0.169401 
966.336816  	0.166280 
968.265632  	0.160939 
970.194448  	0.154484 
972.123264  	0.146834 
974.052080  	0.138542 
975.980896  	0.130592 
977.909712  	0.123174 
979.838528  	0.116899 
981.767344  	0.111599 
983.696160  	0.107772 
985.624976  	0.105843 
987.553792  	0.105813 
989.482608  	0.107260 
991.411424  	0.110375 
993.340240  	0.114823 
995.269056  	0.120137 
997.197872  	0.125994 
999.126688  	0.131473 
1001.055504  	0.137081 
1002.984320  	0.142761 
1004.913136  	0.148511 
1006.841952  	0.153364 
1008.770768  	0.157606 
1010.699584  	0.160826 
1012.628400  	0.163064 
1014.557216  	0.164361 
1016.486032  	0.165069 
1018.414848  	0.165739 
1020.343664  	0.166257 
1022.272480  	0.166334 
1024.201296  	0.166350 
1026.130112  	0.166470 
1028.058928  	0.167271 
1029.987744  	0.167938 
1031.916560  	0.169404 
1033.845376  	0.171759 
1035.774192  	0.174608 
1037.703008  	0.177850 
1039.631824  	0.182377 
1041.560640  	0.188055 
1043.489456  	0.195607 
1045.418272  	0.204954 
1047.347088  	0.215917 
1049.275904  	0.227446 
1051.204720  	0.238975 
1053.133536  	0.248667 
1055.062352  	0.256806 
1056.991168  	0.262245 
1058.919984  	0.265388 
1060.848800  	0.265760 
1062.777616  	0.265440 
1064.706432  	0.263908 
1066.635248  	0.261731 
1068.564064  	0.257651 
1070.492880  	0.253190 
1072.421696  	0.248453 
1074.350512  	0.244198 
1076.279328  	0.240471 
1078.208144  	0.237591 
1080.136960  	0.235087 
1082.065776  	0.232850 
1083.994592  	0.230584 
1085.923408  	0.228313 
1087.852224  	0.224906 
1089.781040  	0.221259 
1091.709856  	0.216299 
1093.638672  	0.210096 
1095.567488  	0.202832 
1097.496304  	0.195561 
1099.425120  	0.187361 
1101.353936  	0.179030 
1103.282752  	0.170297 
1105.211568  	0.161498 
1107.140384  	0.152832 
1109.069200  	0.144311 
1110.998016  	0.136240 
1112.926832  	0.128631 
1114.855648  	0.121176 
1116.784464  	0.114038 
1118.713280  	0.107906 
1120.642096  	0.102186 
1122.570912  	0.096610 
1124.499728  	0.091495 
1126.428544  	0.086441 
1128.357360  	0.081728 
1130.286176  	0.077681 
1132.214992  	0.074277 
1134.143808  	0.071125 
1136.072624  	0.068350 
1138.001440  	0.065588 
1139.930256  	0.063109 
1141.859072  	0.060955 
1143.787888  	0.058686 
1145.716704  	0.056724 
1147.645520  	0.055204 
1149.574336  	0.053989 
1151.503152  	0.053170 
1153.431968  	0.052890 
1155.360784  	0.052828 
1157.289600  	0.053206 
1159.218416  	0.053750 
1161.147232  	0.054606 
1163.076048  	0.055669 
1165.004864  	0.057014 
1166.933680  	0.058357 
1168.862496  	0.059944 
1170.791312  	0.061892 
1172.720128  	0.063758 
1174.648944  	0.065667 
1176.577760  	0.067753 
1178.506576  	0.069887 
1180.435392  	0.071938 
1182.364208  	0.074060 
1184.293024  	0.076184 
1186.221840  	0.078395 
1188.150656  	0.080954 
1190.079472  	0.083853 
1192.008288  	0.087221 
1193.937104  	0.091299 
1195.865920  	0.096052 
1197.794736  	0.100963 
1199.723552  	0.106369 
1201.652368  	0.112217 
1203.581184  	0.118190 
1205.510000  	0.123807 
1207.438816  	0.129498 
1209.367632  	0.135250 
1211.296448  	0.140513 
1213.225264  	0.145366 
1215.154080  	0.149370 
1217.082896  	0.152768 
1219.011712  	0.155569 
1220.940528  	0.158519 
1222.869344  	0.160556 
1224.798160  	0.162060 
1226.726976  	0.163273 
1228.655792  	0.164157 
1230.584608  	0.164121 
1232.513424  	0.163365 
1234.442240  	0.161556 
1236.371056  	0.159307 
1238.299872  	0.156410 
1240.228688  	0.152994 
1242.157504  	0.148635 
1244.086320  	0.143536 
1246.015136  	0.137999 
1247.943952  	0.132529 
1249.872768  	0.126859 
1251.801584  	0.121111 
1253.730400  	0.115318 
1255.659216  	0.109910 
1257.588032  	0.104556 
1259.516848  	0.099512 
1261.445664  	0.094768 
1263.374480  	0.090647 
1265.303296  	0.086798 
1267.232112  	0.083484 
1269.160928  	0.080866 
1271.089744  	0.079099 
1273.018560  	0.078207 
1274.947376  	0.077923 
1276.876192  	0.077685 
1278.805008  	0.076969 
1280.733824  	0.075501 
1282.662640  	0.073116 
1284.591456  	0.069979 
1286.520272  	0.066738 
1288.449088  	0.064147 
1290.377904  	0.062199 
1292.306720  	0.060576 
1294.235536  	0.058652 
1296.164352  	0.055983 
1298.093168  	0.053027 
1300.021984  	0.050113 
1301.950800  	0.047411 
1303.879616  	0.045071 
1305.808432  	0.043200 
1307.737248  	0.041638 
1309.666064  	0.040265 
1311.594880  	0.039412 
1313.523696  	0.039001 
1315.452512  	0.038715 
1317.381328  	0.038918 
1319.310144  	0.039508 
1321.238960  	0.040159 
1323.167776  	0.040920 
1325.096592  	0.041482 
1327.025408  	0.041675 
1328.954224  	0.041358 
1330.883040  	0.040729 
1332.811856  	0.039871 
1334.740672  	0.038924 
1336.669488  	0.037873 
1338.598304  	0.037247 
1340.527120  	0.037145 
1342.455936  	0.036987 
1344.384752  	0.036957 
1346.313568  	0.037402 
1348.242384  	0.038288 
1350.171200  	0.039567 
1352.100016  	0.041080 
1354.028832  	0.042629 
1355.957648  	0.044437 
1357.886464  	0.046078 
1359.815280  	0.047134 
1361.744096  	0.048310 
1363.672912  	0.050444 
1365.601728  	0.051574 
1367.530544  	0.051933 
1369.459360  	0.052411 
1371.388176  	0.051857 
1373.316992  	0.050632 
1375.245808  	0.050017 
1377.174624  	0.048910 
1379.103440  	0.047464 
1381.032256  	0.046131 
1382.961072  	0.044934 
1384.889888  	0.043461 
1386.818704  	0.042483 
1388.747520  	0.042281 
1390.676336  	0.041261 
1392.605152  	0.039845 
1394.533968  	0.039277 
1396.462784  	0.039369 
1398.391600  	0.039332 
1400.320416  	0.040809 
1402.249232  	0.041316 
1404.178048  	0.042062 
1406.106864  	0.043723 
1408.035680  	0.045080 
1409.964496  	0.046231 
1411.893312  	0.047802 
1413.822128  	0.049012 
1415.750944  	0.049325 
1417.679760  	0.048712 
1419.608576  	0.049927 
1421.537392  	0.050100 
1423.466208  	0.048831 
1425.395024  	0.048247 
1427.323840  	0.046447 
1429.252656  	0.044568 
1431.181472  	0.043825 
1433.110288  	0.043266 
1435.039104  	0.042001 
1436.967920  	0.043210 
1438.896736  	0.044833 
1440.825552  	0.044958 
1442.754368  	0.045327 
1444.683184  	0.045112 
1446.612000  	0.044584 
1448.540816  	0.045221 
1450.469632  	0.045719 
1452.398448  	0.045334 
1454.327264  	0.043799 
1456.256080  	0.042319 
1458.184896  	0.045359 
1460.113712  	0.046623 
1462.042528  	0.046117 
1463.971344  	0.045607 
1465.900160  	0.048108 
1467.828976  	0.049827 
1469.757792  	0.050437 
1471.686608  	0.051671 
1473.615424  	0.057009 
1475.544240  	0.060434 
1477.473056  	0.063246 
1479.401872  	0.064118 
1481.330688  	0.064640 
1483.259504  	0.064867 
1485.188320  	0.063538 
1487.117136  	0.061208 
1489.045952  	0.059343 
1490.974768  	0.058463 
1492.903584  	0.056154 
1494.832400  	0.052026 
1496.761216  	0.048982 
1498.690032  	0.047016 
1500.618848  	0.045333 
1502.547664  	0.042558 
1504.476480  	0.038166 
1506.405296  	0.035374 
1508.334112  	0.038434 
1510.262928  	0.037960 
1512.191744  	0.036973 
1514.120560  	0.035380 
1516.049376  	0.034142 
1517.978192  	0.034873 
1519.907008  	0.034230 
1521.835824  	0.036764 
1523.764640  	0.039854 
1525.693456  	0.041681 
1527.622272  	0.044335 
1529.551088  	0.045450 
1531.479904  	0.044467 
1533.408720  	0.044055 
1535.337536  	0.044486 
1537.266352  	0.040493 
1539.195168  	0.035812 
1541.123984  	0.036029 
1543.052800  	0.037005 
1544.981616  	0.037032 
1546.910432  	0.036632 
1548.839248  	0.035167 
1550.768064  	0.035561 
1552.696880  	0.034786 
1554.625696  	0.034535 
1556.554512  	0.032402 
1558.483328  	0.031490 
1560.412144  	0.040893 
1562.340960  	0.042664 
1564.269776  	0.043484 
1566.198592  	0.046447 
1568.127408  	0.047833 
1570.056224  	0.052870 
1571.985040  	0.057042 
1573.913856  	0.057119 
1575.842672  	0.058188 
1577.771488  	0.062263 
1579.700304  	0.062250 
1581.629120  	0.062090 
1583.557936  	0.062235 
1585.486752  	0.063483 
1587.415568  	0.065434 
1589.344384  	0.068626 
1591.273200  	0.072273 
1593.202016  	0.076636 
1595.130832  	0.080957 
1597.059648  	0.085500 
1598.988464  	0.088818 
1600.917280  	0.091395 
1602.846096  	0.092936 
1604.774912  	0.093857 
1606.703728  	0.093394 
1608.632544  	0.093117 
1610.561360  	0.092590 
1612.490176  	0.092069 
1614.418992  	0.090288 
1616.347808  	0.091290 
1618.276624  	0.095696 
1620.205440  	0.097714 
1622.134256  	0.099513 
1624.063072  	0.106167 
1625.991888  	0.111328 
1627.920704  	0.117070 
1629.849520  	0.124068 
1631.778336  	0.128952 
1633.707152  	0.131442 
1635.635968  	0.138124 
1637.564784  	0.147146 
1639.493600  	0.150790 
1641.422416  	0.153748 
1643.351232  	0.155057 
1645.280048  	0.154404 
1647.208864  	0.157267 
1649.137680  	0.159087 
1651.066496  	0.154922 
1652.995312  	0.153456 
1654.924128  	0.159468 
1656.852944  	0.157660 
1658.781760  	0.155731 
1660.710576  	0.153545 
1662.639392  	0.152548 
1664.568208  	0.152436 
1666.497024  	0.149748 
1668.425840  	0.146653 
1670.354656  	0.146924 
1672.283472  	0.146712 
1674.212288  	0.145050 
1676.141104  	0.146794 
1678.069920  	0.147007 
1679.998736  	0.146291 
1681.927552  	0.144278 
1683.856368  	0.143648 
1685.785184  	0.148996 
1687.714000  	0.147695 
1689.642816  	0.146493 
1691.571632  	0.145289 
1693.500448  	0.141688 
1695.429264  	0.137903 
1697.358080  	0.135729 
1699.286896  	0.130814 
1701.215712  	0.130344 
1703.144528  	0.126727 
1705.073344  	0.121793 
1707.002160  	0.118519 
1708.930976  	0.114562 
1710.859792  	0.109504 
1712.788608  	0.103362 
1714.717424  	0.096694 
1716.646240  	0.090252 
1718.575056  	0.086420 
1720.503872  	0.081750 
1722.432688  	0.076046 
1724.361504  	0.070408 
1726.290320  	0.065025 
1728.219136  	0.059252 
1730.147952  	0.053939 
1732.076768  	0.048193 
1734.005584  	0.044105 
1735.934400  	0.041669 
1737.863216  	0.037136 
1739.792032  	0.033033 
1741.720848  	0.030412 
1743.649664  	0.027610 
1745.578480  	0.024881 
1747.507296  	0.021779 
1749.436112  	0.020194 
1751.364928  	0.020233 
1753.293744  	0.019928 
1755.222560  	0.017817 
1757.151376  	0.017304 
1759.080192  	0.016266 
1761.009008  	0.015411 
1762.937824  	0.015869 
1764.866640  	0.015444 
1766.795456  	0.013918 
1768.724272  	0.013566 
1770.653088  	0.011648 
1772.581904  	0.012386 
1774.510720  	0.013724 
1776.439536  	0.013592 
1778.368352  	0.013024 
1780.297168  	0.012947 
1782.225984  	0.012994 
1784.154800  	0.012775 
1786.083616  	0.012970 
1788.012432  	0.012461 
1789.941248  	0.010858 
1791.870064  	0.010630 
1793.798880  	0.011854 
1795.727696  	0.011860 
1797.656512  	0.011076 
1799.585328  	0.010556 
1801.514144  	0.011030 
1803.442960  	0.011427 
1805.371776  	0.011219 
1807.300592  	0.010750 
1809.229408  	0.009989 
1811.158224  	0.010196 
1813.087040  	0.010531 
1815.015856  	0.010219 
1816.944672  	0.010221 
1818.873488  	0.010726 
1820.802304  	0.010705 
1822.731120  	0.009917 
1824.659936  	0.009222 
1826.588752  	0.009842 
1828.517568  	0.008913 
1830.446384  	0.009753 
1832.375200  	0.010595 
1834.304016  	0.010277 
1836.232832  	0.010099 
1838.161648  	0.010331 
1840.090464  	0.009949 
1842.019280  	0.008563 
1843.948096  	0.008391 
1845.876912  	0.009968 
1847.805728  	0.009981 
1849.734544  	0.010165 
1851.663360  	0.009938 
1853.592176  	0.009994 
1855.520992  	0.009965 
1857.449808  	0.010280 
1859.378624  	0.010165 
1861.307440  	0.010067 
1863.236256  	0.009611 
1865.165072  	0.009229 
1867.093888  	0.008688 
1869.022704  	0.009590 
1870.951520  	0.010076 
1872.880336  	0.009941 
1874.809152  	0.009603 
1876.737968  	0.009532 
1878.666784  	0.009425 
1880.595600  	0.009500 
1882.524416  	0.009624 
1884.453232  	0.009590 
1886.382048  	0.009090 
1888.310864  	0.008883 
1890.239680  	0.009681 
1892.168496  	0.010036 
1894.097312  	0.009314 
1896.026128  	0.009391 
1897.954944  	0.009037 
1899.883760  	0.009034 
1901.812576  	0.009082 
1903.741392  	0.009237 
1905.670208  	0.008933 
1907.599024  	0.008521 
1909.527840  	0.008559 
1911.456656  	0.009335 
1913.385472  	0.009627 
1915.314288  	0.009504 
1917.243104  	0.008768 
1919.171920  	0.008927 
1921.100736  	0.008610 
1923.029552  	0.009203 
1924.958368  	0.009261 
1926.887184  	0.009484 
1928.816000  	0.009431 
1930.744816  	0.009246 
1932.673632  	0.009148 
1934.602448  	0.009373 
1936.531264  	0.009260 
1938.460080  	0.008818 
1940.388896  	0.008468 
1942.317712  	0.008747 
1944.246528  	0.009073 
1946.175344  	0.009607 
1948.104160  	0.008892 
1950.032976  	0.008742 
1951.961792  	0.008933 
1953.890608  	0.008984 
1955.819424  	0.008281 
1957.748240  	0.008185 
1959.677056  	0.008279 
1961.605872  	0.008607 
1963.534688  	0.008636 
1965.463504  	0.009482 
1967.392320  	0.009084 
1969.321136  	0.008720 
1971.249952  	0.008569 
1973.178768  	0.009693 
1975.107584  	0.009579 
1977.036400  	0.009688 
1978.965216  	0.011643 
1980.894032  	0.012140 
1982.822848  	0.010332 
1984.751664  	0.010301 
1986.680480  	0.010016 
1988.609296  	0.009947 
1990.538112  	0.009916 
1992.466928  	0.010595 
1994.395744  	0.010588 
1996.324560  	0.010520 
1998.253376  	0.010393 
2000.182192  	0.010303 
2002.111008  	0.009598 
2004.039824  	0.009362 
2005.968640  	0.009068 
2007.897456  	0.009484 
2009.826272  	0.009276 
2011.755088  	0.009260 
2013.683904  	0.009792 
2015.612720  	0.009694 
2017.541536  	0.008477 
2019.470352  	0.009038 
2021.399168  	0.009346 
2023.327984  	0.010273 
2025.256800  	0.009934 
2027.185616  	0.008793 
2029.114432  	0.008857 
2031.043248  	0.011001 
2032.972064  	0.011197 
2034.900880  	0.011369 
2036.829696  	0.011026 
2038.758512  	0.010828 
2040.687328  	0.010739 
2042.616144  	0.010151 
2044.544960  	0.009708 
2046.473776  	0.010654 
2048.402592  	0.011528 
2050.331408  	0.012305 
2052.260224  	0.010876 
2054.189040  	0.010164 
2056.117856  	0.009838 
2058.046672  	0.010228 
2059.975488  	0.010337 
2061.904304  	0.010433 
2063.833120  	0.010849 
2065.761936  	0.011030 
2067.690752  	0.010652 
2069.619568  	0.010396 
2071.548384  	0.009710 
2073.477200  	0.009854 
2075.406016  	0.010746 
2077.334832  	0.011301 
2079.263648  	0.010919 
2081.192464  	0.010992 
2083.121280  	0.011103 
2085.050096  	0.010800 
2086.978912  	0.010653 
2088.907728  	0.010667 
2090.836544  	0.010284 
2092.765360  	0.010016 
2094.694176  	0.010175 
2096.622992  	0.010388 
2098.551808  	0.010096 
2100.480624  	0.010540 
2102.409440  	0.010808 
2104.338256  	0.011211 
2106.267072  	0.011360 
2108.195888  	0.011492 
2110.124704  	0.011773 
2112.053520  	0.011960 
2113.982336  	0.011798 
2115.911152  	0.011870 
2117.839968  	0.011256 
2119.768784  	0.010446 
2121.697600  	0.010185 
2123.626416  	0.010341 
2125.555232  	0.010409 
2127.484048  	0.010522 
2129.412864  	0.010177 
2131.341680  	0.009729 
2133.270496  	0.009741 
2135.199312  	0.010346 
2137.128128  	0.011348 
2139.056944  	0.011432 
2140.985760  	0.009938 
2142.914576  	0.010392 
2144.843392  	0.010233 
2146.772208  	0.010251 
2148.701024  	0.010591 
2150.629840  	0.011140 
2152.558656  	0.010101 
2154.487472  	0.009317 
2156.416288  	0.009531 
2158.345104  	0.011812 
2160.273920  	0.015084 
2162.202736  	0.016209 
2164.131552  	0.015623 
2166.060368  	0.016039 
2167.989184  	0.014768 
2169.918000  	0.013417 
2171.846816  	0.012669 
2173.775632  	0.012890 
2175.704448  	0.013170 
2177.633264  	0.014309 
2179.562080  	0.013638 
2181.490896  	0.012987 
2183.419712  	0.012613 
2185.348528  	0.012978 
2187.277344  	0.012962 
2189.206160  	0.013273 
2191.134976  	0.013946 
2193.063792  	0.014478 
2194.992608  	0.013809 
2196.921424  	0.012825 
2198.850240  	0.013185 
2200.779056  	0.013295 
2202.707872  	0.013436 
2204.636688  	0.013469 
2206.565504  	0.013186 
2208.494320  	0.013190 
2210.423136  	0.011820 
2212.351952  	0.011726 
2214.280768  	0.012365 
2216.209584  	0.012255 
2218.138400  	0.012193 
2220.067216  	0.012066 
2221.996032  	0.012416 
2223.924848  	0.012299 
2225.853664  	0.012614 
2227.782480  	0.013180 
2229.711296  	0.012974 
2231.640112  	0.012687 
2233.568928  	0.011867 
2235.497744  	0.011706 
2237.426560  	0.011831 
2239.355376  	0.012073 
2241.284192  	0.011966 
2243.213008  	0.011925 
2245.141824  	0.011701 
2247.070640  	0.011270 
2248.999456  	0.011281 
2250.928272  	0.011980 
2252.857088  	0.012007 
2254.785904  	0.011660 
2256.714720  	0.012174 
2258.643536  	0.012898 
2260.572352  	0.012742 
2262.501168  	0.012660 
2264.429984  	0.012799 
2266.358800  	0.012903 
2268.287616  	0.012788 
2270.216432  	0.013049 
2272.145248  	0.013084 
2274.074064  	0.013398 
2276.002880  	0.013601 
2277.931696  	0.013818 
2279.860512  	0.014078 
2281.789328  	0.014172 
2283.718144  	0.013846 
2285.646960  	0.013937 
2287.575776  	0.014161 
2289.504592  	0.013705 
2291.433408  	0.013208 
2293.362224  	0.013054 
2295.291040  	0.012935 
2297.219856  	0.013149 
2299.148672  	0.013224 
2301.077488  	0.012981 
2303.006304  	0.012993 
2304.935120  	0.012750 
2306.863936  	0.012322 
2308.792752  	0.012240 
2310.721568  	0.012305 
2312.650384  	0.012048 
2314.579200  	0.011518 
2316.508016  	0.011211 
2318.436832  	0.010631 
2320.365648  	0.010223 
2322.294464  	0.010085 
2324.223280  	0.009603 
2326.152096  	0.008124 
2328.080912  	0.007039 
2330.009728  	0.006424 
2331.938544  	0.006297 
2333.867360  	0.005714 
2335.796176  	0.005038 
2337.724992  	0.004629 
2339.653808  	0.004587 
2341.582624  	0.004763 
2343.511440  	0.005795 
2345.440256  	0.007682 
2347.369072  	0.009384 
2349.297888  	0.008032 
2351.226704  	0.005508 
2353.155520  	0.004094 
2355.084336  	0.002957 
2357.013152  	0.002028 
2358.941968  	0.001460 
2360.870784  	0.001270 
2362.799600  	0.002050 
2364.728416  	0.003134 
2366.657232  	0.004537 
2368.586048  	0.005669 
2370.514864  	0.007069 
2372.443680  	0.008754 
2374.372496  	0.010431 
2376.301312  	0.011645 
2378.230128  	0.012489 
2380.158944  	0.012810 
2382.087760  	0.012999 
2384.016576  	0.013143 
2385.945392  	0.013252 
2387.874208  	0.013025 
2389.803024  	0.012732 
2391.731840  	0.012762 
2393.660656  	0.012861 
2395.589472  	0.013029 
2397.518288  	0.013177 
2399.447104  	0.013152 
2401.375920  	0.013035 
2403.304736  	0.013087 
2405.233552  	0.013212 
2407.162368  	0.013306 
2409.091184  	0.013389 
2411.020000  	0.013396 
2412.948816  	0.013597 
2414.877632  	0.013512 
2416.806448  	0.013474 
2418.735264  	0.013655 
2420.664080  	0.013626 
2422.592896  	0.013416 
2424.521712  	0.013372 
2426.450528  	0.013536 
2428.379344  	0.013494 
2430.308160  	0.013578 
2432.236976  	0.013717 
2434.165792  	0.013892 
2436.094608  	0.014282 
2438.023424  	0.014524 
2439.952240  	0.014693 
2441.881056  	0.014775 
2443.809872  	0.014707 
2445.738688  	0.014665 
2447.667504  	0.014758 
2449.596320  	0.014828 
2451.525136  	0.014819 
2453.453952  	0.014778 
2455.382768  	0.014870 
2457.311584  	0.015009 
2459.240400  	0.015036 
2461.169216  	0.014844 
2463.098032  	0.014733 
2465.026848  	0.014646 
2466.955664  	0.014767 
2468.884480  	0.014638 
2470.813296  	0.014674 
2472.742112  	0.014832 
2474.670928  	0.014944 
2476.599744  	0.015016 
2478.528560  	0.015002 
2480.457376  	0.015247 
2482.386192  	0.015333 
2484.315008  	0.015329 
2486.243824  	0.015419 
2488.172640  	0.015324 
2490.101456  	0.015341 
2492.030272  	0.015557 
2493.959088  	0.015397 
2495.887904  	0.015067 
2497.816720  	0.015244 
2499.745536  	0.015415 
2501.674352  	0.015534 
2503.603168  	0.015589 
2505.531984  	0.015593 
2507.460800  	0.015658 
2509.389616  	0.015695 
2511.318432  	0.015547 
2513.247248  	0.015608 
2515.176064  	0.015989 
2517.104880  	0.016382 
2519.033696  	0.016494 
2520.962512  	0.016283 
2522.891328  	0.016456 
2524.820144  	0.016743 
2526.748960  	0.016757 
2528.677776  	0.016789 
2530.606592  	0.016923 
2532.535408  	0.016985 
2534.464224  	0.017096 
2536.393040  	0.017041 
2538.321856  	0.016771 
2540.250672  	0.016809 
2542.179488  	0.017008 
2544.108304  	0.017298 
2546.037120  	0.017250 
2547.965936  	0.017494 
2549.894752  	0.017756 
2551.823568  	0.017807 
2553.752384  	0.017904 
2555.681200  	0.017930 
2557.610016  	0.017908 
2559.538832  	0.017981 
2561.467648  	0.018157 
2563.396464  	0.018269 
2565.325280  	0.018330 
2567.254096  	0.018272 
2569.182912  	0.017970 
2571.111728  	0.017922 
2573.040544  	0.017792 
2574.969360  	0.017843 
2576.898176  	0.018205 
2578.826992  	0.018485 
2580.755808  	0.018386 
2582.684624  	0.018398 
2584.613440  	0.018506 
2586.542256  	0.018695 
2588.471072  	0.018914 
2590.399888  	0.018814 
2592.328704  	0.018651 
2594.257520  	0.018779 
2596.186336  	0.019126 
2598.115152  	0.019324 
2600.043968  	0.019214 
2601.972784  	0.019227 
2603.901600  	0.019314 
2605.830416  	0.019331 
2607.759232  	0.019166 
2609.688048  	0.019254 
2611.616864  	0.019466 
2613.545680  	0.019608 
2615.474496  	0.019613 
2617.403312  	0.019612 
2619.332128  	0.019876 
2621.260944  	0.020136 
2623.189760  	0.020040 
2625.118576  	0.020064 
2627.047392  	0.020241 
2628.976208  	0.020568 
2630.905024  	0.020587 
2632.833840  	0.020705 
2634.762656  	0.020781 
2636.691472  	0.020688 
2638.620288  	0.020674 
2640.549104  	0.020715 
2642.477920  	0.020771 
2644.406736  	0.020875 
2646.335552  	0.021191 
2648.264368  	0.021451 
2650.193184  	0.021560 
2652.122000  	0.021626 
2654.050816  	0.021729 
2655.979632  	0.021660 
2657.908448  	0.021676 
2659.837264  	0.021779 
2661.766080  	0.021690 
2663.694896  	0.021676 
2665.623712  	0.021638 
2667.552528  	0.021621 
2669.481344  	0.021811 
2671.410160  	0.022116 
2673.338976  	0.022197 
2675.267792  	0.022248 
2677.196608  	0.022383 
2679.125424  	0.022475 
2681.054240  	0.022464 
2682.983056  	0.022464 
2684.911872  	0.022560 
2686.840688  	0.022829 
2688.769504  	0.022935 
2690.698320  	0.022922 
2692.627136  	0.023063 
2694.555952  	0.023178 
2696.484768  	0.023155 
2698.413584  	0.023206 
2700.342400  	0.023238 
2702.271216  	0.023423 
2704.200032  	0.023660 
2706.128848  	0.023771 
2708.057664  	0.023849 
2709.986480  	0.023885 
2711.915296  	0.023936 
2713.844112  	0.024023 
2715.772928  	0.024177 
2717.701744  	0.024407 
2719.630560  	0.024438 
2721.559376  	0.024418 
2723.488192  	0.024518 
2725.417008  	0.024729 
2727.345824  	0.024901 
2729.274640  	0.024938 
2731.203456  	0.024985 
2733.132272  	0.025060 
2735.061088  	0.025135 
2736.989904  	0.025210 
2738.918720  	0.025333 
2740.847536  	0.025378 
2742.776352  	0.025516 
2744.705168  	0.025608 
2746.633984  	0.025584 
2748.562800  	0.025817 
2750.491616  	0.026011 
2752.420432  	0.026033 
2754.349248  	0.026040 
2756.278064  	0.026049 
2758.206880  	0.026062 
2760.135696  	0.026216 
2762.064512  	0.026193 
2763.993328  	0.026134 
2765.922144  	0.026280 
2767.850960  	0.026371 
2769.779776  	0.026365 
2771.708592  	0.026427 
2773.637408  	0.026459 
2775.566224  	0.026509 
2777.495040  	0.026474 
2779.423856  	0.026495 
2781.352672  	0.026615 
2783.281488  	0.026761 
2785.210304  	0.026710 
2787.139120  	0.026792 
2789.067936  	0.026990 
2790.996752  	0.027045 
2792.925568  	0.027146 
2794.854384  	0.027374 
2796.783200  	0.027509 
2798.712016  	0.027459 
2800.640832  	0.027511 
2802.569648  	0.027692 
2804.498464  	0.027791 
2806.427280  	0.027869 
2808.356096  	0.027921 
2810.284912  	0.028023 
2812.213728  	0.028093 
2814.142544  	0.028257 
2816.071360  	0.028433 
2818.000176  	0.028433 
2819.928992  	0.028367 
2821.857808  	0.028459 
2823.786624  	0.028524 
2825.715440  	0.028548 
2827.644256  	0.028469 
2829.573072  	0.028502 
2831.501888  	0.028508 
2833.430704  	0.028434 
2835.359520  	0.028376 
2837.288336  	0.028305 
2839.217152  	0.028399 
2841.145968  	0.028420 
2843.074784  	0.028363 
2845.003600  	0.028388 
2846.932416  	0.028444 
2848.861232  	0.028534 
2850.790048  	0.028567 
2852.718864  	0.028698 
2854.647680  	0.028845 
2856.576496  	0.029002 
2858.505312  	0.029045 
2860.434128  	0.029073 
2862.362944  	0.029100 
2864.291760  	0.029204 
2866.220576  	0.029262 
2868.149392  	0.029611 
2870.078208  	0.030065 
2872.007024  	0.030352 
2873.935840  	0.030666 
2875.864656  	0.031077 
2877.793472  	0.031661 
2879.722288  	0.032141 
2881.651104  	0.032518 
2883.579920  	0.032824 
2885.508736  	0.033072 
2887.437552  	0.033219 
2889.366368  	0.033339 
2891.295184  	0.033552 
2893.224000  	0.033686 
2895.152816  	0.033801 
2897.081632  	0.033638 
2899.010448  	0.033641 
2900.939264  	0.034251 
2902.868080  	0.034457 
2904.796896  	0.034374 
2906.725712  	0.034368 
2908.654528  	0.034421 
2910.583344  	0.034672 
2912.512160  	0.035254 
2914.440976  	0.035673 
2916.369792  	0.035920 
2918.298608  	0.036324 
2920.227424  	0.036759 
2922.156240  	0.037347 
2924.085056  	0.037820 
2926.013872  	0.038352 
2927.942688  	0.039040 
2929.871504  	0.039567 
2931.800320  	0.039888 
2933.729136  	0.040268 
2935.657952  	0.040491 
2937.586768  	0.040902 
2939.515584  	0.041273 
2941.444400  	0.041546 
2943.373216  	0.041739 
2945.302032  	0.041764 
2947.230848  	0.041845 
2949.159664  	0.041856 
2951.088480  	0.041821 
2953.017296  	0.041920 
2954.946112  	0.041802 
2956.874928  	0.041592 
2958.803744  	0.041531 
2960.732560  	0.041452 
2962.661376  	0.041441 
2964.590192  	0.041356 
2966.519008  	0.041183 
2968.447824  	0.041016 
2970.376640  	0.040931 
2972.305456  	0.040699 
2974.234272  	0.040590 
2976.163088  	0.040523 
2978.091904  	0.040325 
2980.020720  	0.040236 
2981.949536  	0.040241 
2983.878352  	0.040067 
2985.807168  	0.039774 
2987.735984  	0.039927 
2989.664800  	0.040245 
2991.593616  	0.040194 
2993.522432  	0.040002 
2995.451248  	0.040083 
2997.380064  	0.040195 
2999.308880  	0.040168 
3001.237696  	0.040138 
3003.166512  	0.040195 
3005.095328  	0.040237 
3007.024144  	0.040387 
3008.952960  	0.040487 
3010.881776  	0.040522 
3012.810592  	0.040624 
3014.739408  	0.040717 
3016.668224  	0.040965 
3018.597040  	0.041111 
3020.525856  	0.041039 
3022.454672  	0.041195 
3024.383488  	0.041434 
3026.312304  	0.041622 
3028.241120  	0.041708 
3030.169936  	0.041667 
3032.098752  	0.041924 
3034.027568  	0.041948 
3035.956384  	0.041948 
3037.885200  	0.042155 
3039.814016  	0.042412 
3041.742832  	0.042681 
3043.671648  	0.042974 
3045.600464  	0.043229 
3047.529280  	0.043255 
3049.458096  	0.043340 
3051.386912  	0.043457 
3053.315728  	0.043675 
3055.244544  	0.043993 
3057.173360  	0.044422 
3059.102176  	0.044785 
3061.030992  	0.045009 
3062.959808  	0.045266 
3064.888624  	0.045694 
3066.817440  	0.046161 
3068.746256  	0.046392 
3070.675072  	0.046527 
3072.603888  	0.046868 
3074.532704  	0.047318 
3076.461520  	0.047722 
3078.390336  	0.047949 
3080.319152  	0.048284 
3082.247968  	0.048751 
3084.176784  	0.049308 
3086.105600  	0.049640 
3088.034416  	0.049810 
3089.963232  	0.050068 
3091.892048  	0.050343 
3093.820864  	0.050556 
3095.749680  	0.050900 
3097.678496  	0.050996 
3099.607312  	0.051372 
3101.536128  	0.051863 
3103.464944  	0.052249 
3105.393760  	0.052503 
3107.322576  	0.052754 
3109.251392  	0.053111 
3111.180208  	0.053401 
3113.109024  	0.053578 
3115.037840  	0.053699 
3116.966656  	0.054028 
3118.895472  	0.054283 
3120.824288  	0.054477 
3122.753104  	0.054872 
3124.681920  	0.055161 
3126.610736  	0.055219 
3128.539552  	0.055323 
3130.468368  	0.055497 
3132.397184  	0.055675 
3134.326000  	0.056015 
3136.254816  	0.056235 
3138.183632  	0.056446 
3140.112448  	0.056574 
3142.041264  	0.056709 
3143.970080  	0.057020 
3145.898896  	0.057395 
3147.827712  	0.057791 
3149.756528  	0.057995 
3151.685344  	0.058165 
3153.614160  	0.058495 
3155.542976  	0.058703 
3157.471792  	0.058724 
3159.400608  	0.059154 
3161.329424  	0.059567 
3163.258240  	0.059961 
3165.187056  	0.060381 
3167.115872  	0.060488 
3169.044688  	0.060553 
3170.973504  	0.060668 
3172.902320  	0.060807 
3174.831136  	0.060902 
3176.759952  	0.061064 
3178.688768  	0.061321 
3180.617584  	0.061356 
3182.546400  	0.061262 
3184.475216  	0.061664 
3186.404032  	0.061907 
3188.332848  	0.061850 
3190.261664  	0.061999 
3192.190480  	0.062039 
3194.119296  	0.061873 
3196.048112  	0.061902 
3197.976928  	0.062285 
3199.905744  	0.062262 
3201.834560  	0.062163 
3203.763376  	0.062234 
3205.692192  	0.062161 
3207.621008  	0.062152 
3209.549824  	0.062056 
3211.478640  	0.061854 
3213.407456  	0.061637 
3215.336272  	0.061619 
3217.265088  	0.061566 
3219.193904  	0.061480 
3221.122720  	0.061206 
3223.051536  	0.061016 
3224.980352  	0.060914 
3226.909168  	0.060597 
3228.837984  	0.060328 
3230.766800  	0.060365 
3232.695616  	0.060418 
3234.624432  	0.060307 
3236.553248  	0.060266 
3238.482064  	0.060167 
3240.410880  	0.060138 
3242.339696  	0.059951 
3244.268512  	0.059784 
3246.197328  	0.059951 
3248.126144  	0.060095 
3250.054960  	0.060101 
3251.983776  	0.059910 
3253.912592  	0.059900 
3255.841408  	0.060119 
3257.770224  	0.060288 
3259.699040  	0.060365 
3261.627856  	0.060469 
3263.556672  	0.060496 
3265.485488  	0.060542 
3267.414304  	0.060672 
3269.343120  	0.060800 
3271.271936  	0.060923 
3273.200752  	0.060953 
3275.129568  	0.061114 
3277.058384  	0.061303 
3278.987200  	0.061411 
3280.916016  	0.061511 
3282.844832  	0.061563 
3284.773648  	0.061561 
3286.702464  	0.061636 
3288.631280  	0.061803 
3290.560096  	0.061975 
3292.488912  	0.062118 
3294.417728  	0.062182 
3296.346544  	0.062372 
3298.275360  	0.062597 
3300.204176  	0.062904 
3302.132992  	0.063068 
3304.061808  	0.063286 
3305.990624  	0.063528 
3307.919440  	0.063590 
3309.848256  	0.063670 
3311.777072  	0.063782 
3313.705888  	0.064082 
3315.634704  	0.064492 
3317.563520  	0.064670 
3319.492336  	0.064754 
3321.421152  	0.064890 
3323.349968  	0.065068 
3325.278784  	0.065170 
3327.207600  	0.065094 
3329.136416  	0.065135 
3331.065232  	0.065225 
3332.994048  	0.065266 
3334.922864  	0.065177 
3336.851680  	0.065241 
3338.780496  	0.065343 
3340.709312  	0.065288 
3342.638128  	0.065258 
3344.566944  	0.065080 
3346.495760  	0.064842 
3348.424576  	0.064597 
3350.353392  	0.064459 
3352.282208  	0.064352 
3354.211024  	0.064217 
3356.139840  	0.064091 
3358.068656  	0.063913 
3359.997472  	0.063716 
3361.926288  	0.063402 
3363.855104  	0.063071 
3365.783920  	0.062994 
3367.712736  	0.062794 
3369.641552  	0.062348 
3371.570368  	0.062088 
3373.499184  	0.061941 
3375.428000  	0.061722 
3377.356816  	0.061381 
3379.285632  	0.061215 
3381.214448  	0.061124 
3383.143264  	0.060811 
3385.072080  	0.060643 
3387.000896  	0.060348 
3388.929712  	0.060024 
3390.858528  	0.059754 
3392.787344  	0.059655 
3394.716160  	0.059331 
3396.644976  	0.059087 
3398.573792  	0.058804 
3400.502608  	0.058072 
3402.431424  	0.057602 
3404.360240  	0.057420 
3406.289056  	0.057160 
3408.217872  	0.056939 
3410.146688  	0.056670 
3412.075504  	0.056530 
3414.004320  	0.056447 
3415.933136  	0.055937 
3417.861952  	0.055444 
3419.790768  	0.055472 
3421.719584  	0.055508 
3423.648400  	0.054919 
3425.577216  	0.054560 
3427.506032  	0.054383 
3429.434848  	0.053754 
3431.363664  	0.053444 
3433.292480  	0.053308 
3435.221296  	0.053070 
3437.150112  	0.052676 
3439.078928  	0.052324 
3441.007744  	0.051948 
3442.936560  	0.051879 
3444.865376  	0.051410 
3446.794192  	0.050839 
3448.723008  	0.050983 
3450.651824  	0.050583 
3452.580640  	0.050109 
3454.509456  	0.049735 
3456.438272  	0.049291 
3458.367088  	0.048872 
3460.295904  	0.048495 
3462.224720  	0.047992 
3464.153536  	0.047535 
3466.082352  	0.047077 
3468.011168  	0.046693 
3469.939984  	0.046269 
3471.868800  	0.045920 
3473.797616  	0.045650 
3475.726432  	0.045332 
3477.655248  	0.044741 
3479.584064  	0.044183 
3481.512880  	0.044088 
3483.441696  	0.043737 
3485.370512  	0.042758 
3487.299328  	0.042375 
3489.228144  	0.042293 
3491.156960  	0.041683 
3493.085776  	0.041180 
3495.014592  	0.040803 
3496.943408  	0.040420 
3498.872224  	0.039913 
3500.801040  	0.039326 
3502.729856  	0.039112 
3504.658672  	0.038974 
3506.587488  	0.038142 
3508.516304  	0.037597 
3510.445120  	0.038073 
3512.373936  	0.037981 
3514.302752  	0.037455 
3516.231568  	0.037019 
3518.160384  	0.036515 
3520.089200  	0.035858 
3522.018016  	0.035175 
3523.946832  	0.035202 
3525.875648  	0.034802 
3527.804464  	0.034321 
3529.733280  	0.034488 
3531.662096  	0.034241 
3533.590912  	0.033577 
3535.519728  	0.033373 
3537.448544  	0.033610 
3539.377360  	0.033230 
3541.306176  	0.032398 
3543.234992  	0.031474 
3545.163808  	0.031583 
3547.092624  	0.032050 
3549.021440  	0.031283 
3550.950256  	0.030406 
3552.879072  	0.030727 
3554.807888  	0.030672 
3556.736704  	0.030110 
3558.665520  	0.029725 
3560.594336  	0.029621 
3562.523152  	0.028792 
3564.451968  	0.027026 
3566.380784  	0.026660 
3568.309600  	0.028843 
3570.238416  	0.028778 
3572.167232  	0.027584 
3574.096048  	0.027102 
3576.024864  	0.026779 
3577.953680  	0.026288 
3579.882496  	0.025865 
3581.811312  	0.025475 
3583.740128  	0.024263 
3585.668944  	0.022451 
3587.597760  	0.023611 
3589.526576  	0.025074 
3591.455392  	0.023136 
3593.384208  	0.022207 
3595.313024  	0.022522 
3597.241840  	0.022191 
3599.170656  	0.021187 
3601.099472  	0.021155 
3603.028288  	0.021155 
3604.957104  	0.019678 
3606.885920  	0.018261 
3608.814736  	0.019205 
3610.743552  	0.018692 
3612.672368  	0.017465 
3614.601184  	0.017696 
3616.530000  	0.016198 
3618.458816  	0.015871 
3620.387632  	0.017693 
3622.316448  	0.017209 
3624.245264  	0.015422 
3626.174080  	0.012450 
3628.102896  	0.011396 
3630.031712  	0.016629 
3631.960528  	0.015733 
3633.889344  	0.014589 
3635.818160  	0.014234 
3637.746976  	0.013544 
3639.675792  	0.013580 
3641.604608  	0.013219 
3643.533424  	0.011943 
3645.462240  	0.008863 
3647.391056  	0.007099 
3649.319872  	0.009149 
3651.248688  	0.013314 
3653.177504  	0.012024 
3655.106320  	0.009488 
3657.035136  	0.011358 
3658.963952  	0.011491 
3660.892768  	0.010453 
3662.821584  	0.009907 
3664.750400  	0.009262 
3666.679216  	0.007048 
3668.608032  	0.005061 
3670.536848  	0.007974 
3672.465664  	0.007270 
3674.394480  	0.003699 
3676.323296  	0.009352 
3678.252112  	0.009920 
3680.180928  	0.009044 
3682.109744  	0.008511 
3684.038560  	0.007520 
3685.967376  	0.005395 
3687.896192  	0.004573 
3689.825008  	0.007241 
3691.753824  	0.008695 
3693.682640  	0.008292 
3695.611456  	0.007250 
3697.540272  	0.007211 
3699.469088  	0.005934 
3701.397904  	0.006545 
3703.326720  	0.008197 
3705.255536  	0.007122 
3707.184352  	0.005111 
3709.113168  	0.003795 
3711.041984  	0.004942 
3712.970800  	0.008339 
3714.899616  	0.008216 
3716.828432  	0.006449 
3718.757248  	0.005653 
3720.686064  	0.005166 
3722.614880  	0.005934 
3724.543696  	0.006174 
3726.472512  	0.006739 
3728.401328  	0.006784 
3730.330144  	0.003628 
3732.258960  	0.002301 
3734.187776  	0.002955 
3736.116592  	0.006689 
3738.045408  	0.007634 
3739.974224  	0.005526 
3741.903040  	0.002693 
3743.831856  	0.003198 
3745.760672  	0.008524 
3747.689488  	0.003786 
3749.618304  	0.002349 
3751.547120  	0.006087 
3753.475936  	0.009164 
3755.404752  	0.007138 
3757.333568  	0.005536 
3759.262384  	0.006306 
3761.191200  	0.008196 
3763.120016  	0.006773 
3765.048832  	0.006302 
3766.977648  	0.006715 
3768.906464  	0.006139 
3770.835280  	0.008157 
3772.764096  	0.008436 
3774.692912  	0.007424 
3776.621728  	0.006106 
3778.550544  	0.005655 
3780.479360  	0.007688 
3782.408176  	0.007202 
3784.336992  	0.006762 
3786.265808  	0.007673 
3788.194624  	0.007766 
3790.123440  	0.007575 
3792.052256  	0.007295 
3793.981072  	0.005962 
3795.909888  	0.005647 
3797.838704  	0.006161 
3799.767520  	0.003720 
3801.696336  	0.006242 
3803.625152  	0.007956 
3805.553968  	0.005266 
3807.482784  	0.007806 
3809.411600  	0.008835 
3811.340416  	0.007497 
3813.269232  	0.005218 
3815.198048  	0.004202 
3817.126864  	0.006984 
3819.055680  	0.004088 
3820.984496  	0.005295 
3822.913312  	0.009211 
3824.842128  	0.006899 
3826.770944  	0.006803 
3828.699760  	0.006877 
3830.628576  	0.005777 
3832.557392  	0.006078 
3834.486208  	0.005049 
3836.415024  	0.003986 
3838.343840  	0.005728 
3840.272656  	0.007166 
3842.201472  	0.006987 
3844.130288  	0.007590 
3846.059104  	0.007922 
3847.987920  	0.006453 
3849.916736  	0.003731 
3851.845552  	0.000755 
3853.774368  	0.007113 
3855.703184  	0.010503 
3857.632000  	0.008084 
3859.560816  	0.006330 
3861.489632  	0.005401 
3863.418448  	0.005710 
3865.347264  	0.007424 
3867.276080  	0.005853 
3869.204896  	0.004801 
3871.133712  	0.008347 
3873.062528  	0.006891 
3874.991344  	0.008194 
3876.920160  	0.007291 
3878.848976  	0.005151 
3880.777792  	0.006994 
3882.706608  	0.007187 
3884.635424  	0.005738 
3886.564240  	0.008718 
3888.493056  	0.007267 
3890.421872  	0.005859 
3892.350688  	0.008069 
3894.279504  	0.008036 
3896.208320  	0.006349 
3898.137136  	0.005171 
3900.065952  	0.005756 
3901.994768  	0.006097 
3903.923584  	0.007425 
3905.852400  	0.009316 
3907.781216  	0.008769 
3909.710032  	0.008035 
3911.638848  	0.007682 
3913.567664  	0.007172 
3915.496480  	0.006617 
3917.425296  	0.007836 
3919.354112  	0.008419 
3921.282928  	0.008220 
3923.211744  	0.007349 
3925.140560  	0.007798 
3927.069376  	0.007800 
3928.998192  	0.006958 
3930.927008  	0.007135 
3932.855824  	0.008222 
3934.784640  	0.008434 
3936.713456  	0.008150 
3938.642272  	0.008079 
3940.571088  	0.007344 
3942.499904  	0.007698 
3944.428720  	0.008327 
3946.357536  	0.007557 
3948.286352  	0.007695 
3950.215168  	0.008199 
3952.143984  	0.008053 
3954.072800  	0.007861 
3956.001616  	0.007907 
3957.930432  	0.008211 
3959.859248  	0.008378 
3961.788064  	0.008217 
3963.716880  	0.008174 
3965.645696  	0.008073 
3967.574512  	0.008166 
3969.503328  	0.008141 
3971.432144  	0.007960 
3973.360960  	0.007888 
3975.289776  	0.008192 
3977.218592  	0.008399 
3979.147408  	0.008367 
3981.076224  	0.008091 
3983.005040  	0.008061 
3984.933856  	0.008197 
3986.862672  	0.008309 
3988.791488  	0.008115 
3990.720304  	0.008144 
3992.649120  	0.008233 
3994.577936  	0.008200 
3996.506752  	0.008207 
3998.435568  	0.008176 
4000.364384  	0.008156 