##TITLE=No Description
##DATA TYPE=INFRARED SPECTRUM
##XUNITS=1/CM
##YUNITS=Abs
399.264912  	0.555794 
401.193728  	0.574678 
403.122544  	0.597492 
405.051360  	0.595081 
406.980176  	0.581439 
408.908992  	0.566679 
410.837808  	0.564793 
412.766624  	0.566516 
414.695440  	0.556829 
416.624256  	0.540242 
418.553072  	0.538904 
420.481888  	0.544907 
422.410704  	0.553400 
424.339520  	0.546577 
426.268336  	0.546620 
428.197152  	0.538408 
430.125968  	0.537429 
432.054784  	0.535057 
433.983600  	0.533853 
435.912416  	0.529466 
437.841232  	0.530604 
439.770048  	0.527799 
441.698864  	0.526212 
443.627680  	0.520812 
445.556496  	0.516417 
447.485312  	0.514506 
449.414128  	0.512255 
451.342944  	0.506118 
453.271760  	0.509589 
455.200576  	0.510104 
457.129392  	0.512147 
459.058208  	0.514200 
460.987024  	0.513990 
462.915840  	0.510265 
464.844656  	0.509277 
466.773472  	0.502281 
468.702288  	0.506873 
470.631104  	0.511044 
472.559920  	0.513649 
474.488736  	0.508499 
476.417552  	0.505564 
478.346368  	0.501510 
480.275184  	0.502901 
482.204000  	0.501261 
484.132816  	0.501293 
486.061632  	0.500693 
487.990448  	0.502348 
489.919264  	0.503346 
491.848080  	0.502653 
493.776896  	0.497718 
495.705712  	0.497929 
497.634528  	0.495242 
499.563344  	0.495820 
501.492160  	0.493522 
503.420976  	0.493738 
505.349792  	0.491667 
507.278608  	0.491692 
509.207424  	0.493396 
511.136240  	0.494015 
513.065056  	0.494983 
514.993872  	0.496078 
516.922688  	0.493620 
518.851504  	0.497419 
520.780320  	0.497371 
522.709136  	0.496355 
524.637952  	0.493035 
526.566768  	0.490705 
528.495584  	0.488531 
530.424400  	0.486039 
532.353216  	0.480426 
534.282032  	0.477142 
536.210848  	0.474847 
538.139664  	0.471214 
540.068480  	0.465492 
541.997296  	0.461872 
543.926112  	0.457650 
545.854928  	0.455601 
547.783744  	0.451435 
549.712560  	0.447122 
551.641376  	0.443587 
553.570192  	0.441714 
555.499008  	0.439283 
557.427824  	0.436270 
559.356640  	0.431567 
561.285456  	0.428464 
563.214272  	0.424512 
565.143088  	0.421826 
567.071904  	0.417827 
569.000720  	0.413872 
570.929536  	0.409979 
572.858352  	0.406793 
574.787168  	0.404495 
576.715984  	0.401792 
578.644800  	0.397035 
580.573616  	0.394023 
582.502432  	0.390669 
584.431248  	0.387378 
586.360064  	0.383843 
588.288880  	0.382072 
590.217696  	0.380387 
592.146512  	0.378846 
594.075328  	0.376412 
596.004144  	0.374694 
597.932960  	0.372729 
599.861776  	0.372240 
601.790592  	0.370763 
603.719408  	0.368858 
605.648224  	0.367216 
607.577040  	0.366079 
609.505856  	0.365236 
611.434672  	0.364861 
613.363488  	0.362758 
615.292304  	0.361039 
617.221120  	0.358740 
619.149936  	0.357595 
621.078752  	0.356024 
623.007568  	0.353481 
624.936384  	0.350974 
626.865200  	0.349476 
628.794016  	0.347722 
630.722832  	0.346518 
632.651648  	0.345641 
634.580464  	0.345675 
636.509280  	0.345476 
638.438096  	0.345111 
640.366912  	0.344226 
642.295728  	0.342638 
644.224544  	0.339969 
646.153360  	0.337038 
648.082176  	0.333430 
650.010992  	0.330566 
651.939808  	0.326925 
653.868624  	0.323452 
655.797440  	0.319646 
657.726256  	0.316154 
659.655072  	0.312742 
661.583888  	0.309695 
663.512704  	0.306362 
665.441520  	0.303324 
667.370336  	0.298641 
669.299152  	0.293880 
671.227968  	0.292835 
673.156784  	0.291096 
675.085600  	0.288365 
677.014416  	0.286550 
678.943232  	0.285099 
680.872048  	0.283464 
682.800864  	0.281760 
684.729680  	0.280733 
686.658496  	0.278989 
688.587312  	0.276975 
690.516128  	0.274383 
692.444944  	0.272855 
694.373760  	0.271834 
696.302576  	0.270440 
698.231392  	0.267935 
700.160208  	0.265473 
702.089024  	0.263022 
704.017840  	0.260887 
705.946656  	0.258408 
707.875472  	0.255962 
709.804288  	0.253767 
711.733104  	0.252368 
713.661920  	0.250912 
715.590736  	0.250144 
717.519552  	0.249659 
719.448368  	0.249996 
721.377184  	0.250575 
723.306000  	0.251200 
725.234816  	0.251023 
727.163632  	0.249634 
729.092448  	0.247069 
731.021264  	0.244512 
732.950080  	0.242209 
734.878896  	0.239470 
736.807712  	0.236822 
738.736528  	0.234889 
740.665344  	0.233240 
742.594160  	0.231986 
744.522976  	0.230514 
746.451792  	0.229150 
748.380608  	0.228427 
750.309424  	0.227982 
752.238240  	0.227081 
754.167056  	0.226646 
756.095872  	0.225758 
758.024688  	0.224419 
759.953504  	0.223589 
761.882320  	0.223646 
763.811136  	0.223711 
765.739952  	0.223405 
767.668768  	0.222120 
769.597584  	0.220552 
771.526400  	0.220382 
773.455216  	0.222283 
775.384032  	0.224899 
777.312848  	0.228015 
779.241664  	0.231481 
781.170480  	0.232361 
783.099296  	0.229541 
785.028112  	0.224704 
786.956928  	0.218754 
788.885744  	0.213956 
790.814560  	0.210347 
792.743376  	0.208064 
794.672192  	0.206634 
796.601008  	0.205912 
798.529824  	0.204233 
800.458640  	0.200919 
802.387456  	0.197491 
804.316272  	0.195926 
806.245088  	0.195439 
808.173904  	0.195004 
810.102720  	0.194498 
812.031536  	0.194253 
813.960352  	0.194024 
815.889168  	0.194090 
817.817984  	0.194041 
819.746800  	0.193621 
821.675616  	0.193237 
823.604432  	0.192956 
825.533248  	0.192176 
827.462064  	0.190936 
829.390880  	0.189519 
831.319696  	0.188221 
833.248512  	0.186732 
835.177328  	0.185082 
837.106144  	0.182754 
839.034960  	0.179859 
840.963776  	0.177109 
842.892592  	0.174697 
844.821408  	0.171814 
846.750224  	0.169257 
848.679040  	0.167141 
850.607856  	0.165098 
852.536672  	0.163532 
854.465488  	0.161862 
856.394304  	0.160443 
858.323120  	0.159222 
860.251936  	0.157789 
862.180752  	0.156046 
864.109568  	0.154614 
866.038384  	0.153273 
867.967200  	0.151521 
869.896016  	0.149992 
871.824832  	0.148800 
873.753648  	0.148046 
875.682464  	0.147963 
877.611280  	0.148174 
879.540096  	0.148649 
881.468912  	0.149363 
883.397728  	0.149717 
885.326544  	0.149727 
887.255360  	0.149609 
889.184176  	0.149059 
891.112992  	0.147955 
893.041808  	0.146181 
894.970624  	0.143976 
896.899440  	0.141550 
898.828256  	0.138220 
900.757072  	0.134890 
902.685888  	0.132073 
904.614704  	0.130251 
906.543520  	0.129628 
908.472336  	0.130394 
910.401152  	0.132137 
912.329968  	0.134398 
914.258784  	0.136954 
916.187600  	0.139338 
918.116416  	0.140971 
920.045232  	0.141614 
921.974048  	0.141290 
923.902864  	0.140368 
925.831680  	0.139222 
927.760496  	0.138223 
929.689312  	0.137427 
931.618128  	0.137210 
933.546944  	0.137356 
935.475760  	0.137556 
937.404576  	0.137748 
939.333392  	0.138361 
941.262208  	0.139534 
943.191024  	0.141509 
945.119840  	0.144720 
947.048656  	0.148971 
948.977472  	0.154338 
950.906288  	0.160634 
952.835104  	0.167420 
954.763920  	0.174120 
956.692736  	0.180330 
958.621552  	0.185452 
960.550368  	0.188818 
962.479184  	0.190127 
964.408000  	0.188755 
966.336816  	0.185377 
968.265632  	0.179567 
970.194448  	0.172025 
972.123264  	0.163295 
974.052080  	0.154034 
975.980896  	0.144842 
977.909712  	0.136318 
979.838528  	0.129217 
981.767344  	0.123299 
983.696160  	0.119034 
985.624976  	0.116983 
987.553792  	0.117077 
989.482608  	0.119106 
991.411424  	0.122790 
993.340240  	0.127899 
995.269056  	0.134425 
997.197872  	0.141296 
999.126688  	0.148013 
1001.055504  	0.154866 
1002.984320  	0.161455 
1004.913136  	0.167776 
1006.841952  	0.173428 
1008.770768  	0.178290 
1010.699584  	0.181961 
1012.628400  	0.184464 
1014.557216  	0.185915 
1016.486032  	0.186757 
1018.414848  	0.187223 
1020.343664  	0.187777 
1022.272480  	0.188100 
1024.201296  	0.188361 
1026.130112  	0.188476 
1028.058928  	0.189176 
1029.987744  	0.190159 
1031.916560  	0.191988 
1033.845376  	0.194579 
1035.774192  	0.197920 
1037.703008  	0.202082 
1039.631824  	0.207451 
1041.560640  	0.214187 
1043.489456  	0.223084 
1045.418272  	0.234071 
1047.347088  	0.246844 
1049.275904  	0.260219 
1051.204720  	0.273560 
1053.133536  	0.284254 
1055.062352  	0.292707 
1056.991168  	0.298271 
1058.919984  	0.301423 
1060.848800  	0.301583 
1062.777616  	0.300569 
1064.706432  	0.297812 
1066.635248  	0.294064 
1068.564064  	0.288725 
1070.492880  	0.283335 
1072.421696  	0.277755 
1074.350512  	0.272573 
1076.279328  	0.267805 
1078.208144  	0.264467 
1080.136960  	0.261860 
1082.065776  	0.259441 
1083.994592  	0.256546 
1085.923408  	0.253324 
1087.852224  	0.249018 
1089.781040  	0.244695 
1091.709856  	0.239169 
1093.638672  	0.232187 
1095.567488  	0.223908 
1097.496304  	0.215304 
1099.425120  	0.205877 
1101.353936  	0.196263 
1103.282752  	0.186447 
1105.211568  	0.176619 
1107.140384  	0.166797 
1109.069200  	0.157242 
1110.998016  	0.148162 
1112.926832  	0.139513 
1114.855648  	0.131473 
1116.784464  	0.123912 
1118.713280  	0.116839 
1120.642096  	0.110405 
1122.570912  	0.104368 
1124.499728  	0.098618 
1126.428544  	0.093127 
1128.357360  	0.088057 
1130.286176  	0.083399 
1132.214992  	0.079393 
1134.143808  	0.076037 
1136.072624  	0.072945 
1138.001440  	0.069761 
1139.930256  	0.066795 
1141.859072  	0.064303 
1143.787888  	0.061926 
1145.716704  	0.059936 
1147.645520  	0.058362 
1149.574336  	0.057066 
1151.503152  	0.056058 
1153.431968  	0.055686 
1155.360784  	0.055659 
1157.289600  	0.055944 
1159.218416  	0.056759 
1161.147232  	0.058069 
1163.076048  	0.059196 
1165.004864  	0.060791 
1166.933680  	0.062450 
1168.862496  	0.064414 
1170.791312  	0.066628 
1172.720128  	0.068847 
1174.648944  	0.070973 
1176.577760  	0.073374 
1178.506576  	0.075864 
1180.435392  	0.078284 
1182.364208  	0.080640 
1184.293024  	0.083290 
1186.221840  	0.086157 
1188.150656  	0.089177 
1190.079472  	0.092659 
1192.008288  	0.096823 
1193.937104  	0.101461 
1195.865920  	0.106815 
1197.794736  	0.112625 
1199.723552  	0.118929 
1201.652368  	0.125490 
1203.581184  	0.132306 
1205.510000  	0.138912 
1207.438816  	0.145552 
1209.367632  	0.152126 
1211.296448  	0.158191 
1213.225264  	0.163644 
1215.154080  	0.168322 
1217.082896  	0.172428 
1219.011712  	0.175602 
1220.940528  	0.178363 
1222.869344  	0.180473 
1224.798160  	0.182215 
1226.726976  	0.183267 
1228.655792  	0.183903 
1230.584608  	0.183687 
1232.513424  	0.182800 
1234.442240  	0.180804 
1236.371056  	0.178040 
1238.299872  	0.174524 
1240.228688  	0.170308 
1242.157504  	0.165046 
1244.086320  	0.159301 
1246.015136  	0.153158 
1247.943952  	0.146892 
1249.872768  	0.140396 
1251.801584  	0.133854 
1253.730400  	0.127430 
1255.659216  	0.121335 
1257.588032  	0.115371 
1259.516848  	0.109661 
1261.445664  	0.104454 
1263.374480  	0.099653 
1265.303296  	0.095285 
1267.232112  	0.091712 
1269.160928  	0.088893 
1271.089744  	0.086887 
1273.018560  	0.085905 
1274.947376  	0.085522 
1276.876192  	0.085208 
1278.805008  	0.084501 
1280.733824  	0.082815 
1282.662640  	0.079990 
1284.591456  	0.076459 
1286.520272  	0.072949 
1288.449088  	0.070053 
1290.377904  	0.067709 
1292.306720  	0.065908 
1294.235536  	0.063892 
1296.164352  	0.061016 
1298.093168  	0.057678 
1300.021984  	0.054423 
1301.950800  	0.051332 
1303.879616  	0.048777 
1305.808432  	0.046687 
1307.737248  	0.044882 
1309.666064  	0.043253 
1311.594880  	0.042355 
1313.523696  	0.041898 
1315.452512  	0.041689 
1317.381328  	0.041892 
1319.310144  	0.042495 
1321.238960  	0.043379 
1323.167776  	0.044309 
1325.096592  	0.044871 
1327.025408  	0.045025 
1328.954224  	0.044652 
1330.883040  	0.044031 
1332.811856  	0.043143 
1334.740672  	0.042221 
1336.669488  	0.041231 
1338.598304  	0.040521 
1340.527120  	0.040103 
1342.455936  	0.039920 
1344.384752  	0.039913 
1346.313568  	0.040494 
1348.242384  	0.041546 
1350.171200  	0.043108 
1352.100016  	0.044820 
1354.028832  	0.046619 
1355.957648  	0.048713 
1357.886464  	0.050726 
1359.815280  	0.052210 
1361.744096  	0.053578 
1363.672912  	0.055412 
1365.601728  	0.056794 
1367.530544  	0.057371 
1369.459360  	0.057651 
1371.388176  	0.057248 
1373.316992  	0.056009 
1375.245808  	0.054646 
1377.174624  	0.053426 
1379.103440  	0.051837 
1381.032256  	0.050372 
1382.961072  	0.049068 
1384.889888  	0.047852 
1386.818704  	0.046568 
1388.747520  	0.045778 
1390.676336  	0.044859 
1392.605152  	0.043778 
1394.533968  	0.042808 
1396.462784  	0.042797 
1398.391600  	0.042980 
1400.320416  	0.044057 
1402.249232  	0.045011 
1404.178048  	0.045996 
1406.106864  	0.047512 
1408.035680  	0.049207 
1409.964496  	0.050728 
1411.893312  	0.052543 
1413.822128  	0.054063 
1415.750944  	0.055051 
1417.679760  	0.054899 
1419.608576  	0.054787 
1421.537392  	0.054865 
1423.466208  	0.053894 
1425.395024  	0.052707 
1427.323840  	0.051285 
1429.252656  	0.049198 
1431.181472  	0.047962 
1433.110288  	0.047548 
1435.039104  	0.047058 
1436.967920  	0.047357 
1438.896736  	0.048724 
1440.825552  	0.049260 
1442.754368  	0.049654 
1444.683184  	0.049619 
1446.612000  	0.049243 
1448.540816  	0.049329 
1450.469632  	0.049939 
1452.398448  	0.049943 
1454.327264  	0.049376 
1456.256080  	0.047774 
1458.184896  	0.048534 
1460.113712  	0.050262 
1462.042528  	0.051005 
1463.971344  	0.050800 
1465.900160  	0.052692 
1467.828976  	0.055144 
1469.757792  	0.057036 
1471.686608  	0.058732 
1473.615424  	0.063245 
1475.544240  	0.067272 
1477.473056  	0.070466 
1479.401872  	0.071835 
1481.330688  	0.072282 
1483.259504  	0.072341 
1485.188320  	0.071344 
1487.117136  	0.068869 
1489.045952  	0.066269 
1490.974768  	0.063998 
1492.903584  	0.061975 
1494.832400  	0.058454 
1496.761216  	0.054282 
1498.690032  	0.051236 
1500.618848  	0.049329 
1502.547664  	0.047184 
1504.476480  	0.043841 
1506.405296  	0.039641 
1508.334112  	0.040287 
1510.262928  	0.040779 
1512.191744  	0.040182 
1514.120560  	0.039051 
1516.049376  	0.037866 
1517.978192  	0.038065 
1519.907008  	0.038452 
1521.835824  	0.040096 
1523.764640  	0.043626 
1525.693456  	0.046113 
1527.622272  	0.048614 
1529.551088  	0.050369 
1531.479904  	0.050355 
1533.408720  	0.049146 
1535.337536  	0.048952 
1537.266352  	0.046512 
1539.195168  	0.041330 
1541.123984  	0.038847 
1543.052800  	0.039768 
1544.981616  	0.039806 
1546.910432  	0.039708 
1548.839248  	0.038859 
1550.768064  	0.038893 
1552.696880  	0.038716 
1554.625696  	0.038745 
1556.554512  	0.037585 
1558.483328  	0.035760 
1560.412144  	0.042368 
1562.340960  	0.046494 
1564.269776  	0.048455 
1566.198592  	0.051987 
1568.127408  	0.054398 
1570.056224  	0.058873 
1571.985040  	0.063872 
1573.913856  	0.065798 
1575.842672  	0.066215 
1577.771488  	0.068996 
1579.700304  	0.069950 
1581.629120  	0.070039 
1583.557936  	0.070367 
1585.486752  	0.071877 
1587.415568  	0.074357 
1589.344384  	0.078164 
1591.273200  	0.082523 
1593.202016  	0.087670 
1595.130832  	0.092671 
1597.059648  	0.097747 
1598.988464  	0.101566 
1600.917280  	0.104556 
1602.846096  	0.106250 
1604.774912  	0.107274 
1606.703728  	0.106892 
1608.632544  	0.106283 
1610.561360  	0.105577 
1612.490176  	0.105337 
1614.418992  	0.104431 
1616.347808  	0.104671 
1618.276624  	0.108007 
1620.205440  	0.111839 
1622.134256  	0.114911 
1624.063072  	0.121380 
1625.991888  	0.127853 
1627.920704  	0.134618 
1629.849520  	0.142378 
1631.778336  	0.149120 
1633.707152  	0.153399 
1635.635968  	0.158973 
1637.564784  	0.166928 
1639.493600  	0.172564 
1641.422416  	0.176380 
1643.351232  	0.178797 
1645.280048  	0.178610 
1647.208864  	0.179000 
1649.137680  	0.180549 
1651.066496  	0.179406 
1652.995312  	0.174627 
1654.924128  	0.176800 
1656.852944  	0.177387 
1658.781760  	0.176250 
1660.710576  	0.174286 
1662.639392  	0.172071 
1664.568208  	0.171066 
1666.497024  	0.169792 
1668.425840  	0.166678 
1670.354656  	0.164833 
1672.283472  	0.164654 
1674.212288  	0.163890 
1676.141104  	0.163775 
1678.069920  	0.164806 
1679.998736  	0.164838 
1681.927552  	0.164033 
1683.856368  	0.161900 
1685.785184  	0.164246 
1687.714000  	0.164749 
1689.642816  	0.163678 
1691.571632  	0.162191 
1693.500448  	0.159764 
1695.429264  	0.154868 
1697.358080  	0.151078 
1699.286896  	0.147058 
1701.215712  	0.142462 
1703.144528  	0.140060 
1705.073344  	0.135070 
1707.002160  	0.130032 
1708.930976  	0.125667 
1710.859792  	0.120316 
1712.788608  	0.114157 
1714.717424  	0.107235 
1716.646240  	0.099668 
1718.575056  	0.092973 
1720.503872  	0.087997 
1722.432688  	0.082577 
1724.361504  	0.076184 
1726.290320  	0.070509 
1728.219136  	0.064501 
1730.147952  	0.058606 
1732.076768  	0.053010 
1734.005584  	0.047201 
1735.934400  	0.043131 
1737.863216  	0.039832 
1739.792032  	0.034891 
1741.720848  	0.031945 
1743.649664  	0.029074 
1745.578480  	0.026269 
1747.507296  	0.023054 
1749.436112  	0.021163 
1751.364928  	0.020236 
1753.293744  	0.019997 
1755.222560  	0.018580 
1757.151376  	0.017604 
1759.080192  	0.016605 
1761.009008  	0.015740 
1762.937824  	0.015469 
1764.866640  	0.015558 
1766.795456  	0.014546 
1768.724272  	0.013936 
1770.653088  	0.012128 
1772.581904  	0.011730 
1774.510720  	0.012776 
1776.439536  	0.013345 
1778.368352  	0.013057 
1780.297168  	0.012773 
1782.225984  	0.012678 
1784.154800  	0.012539 
1786.083616  	0.012454 
1788.012432  	0.012301 
1789.941248  	0.011120 
1791.870064  	0.010559 
1793.798880  	0.011171 
1795.727696  	0.011735 
1797.656512  	0.011157 
1799.585328  	0.010681 
1801.514144  	0.010731 
1803.442960  	0.011015 
1805.371776  	0.010813 
1807.300592  	0.010641 
1809.229408  	0.009928 
1811.158224  	0.009922 
1813.087040  	0.010038 
1815.015856  	0.009973 
1816.944672  	0.009903 
1818.873488  	0.010333 
1820.802304  	0.010207 
1822.731120  	0.009931 
1824.659936  	0.009354 
1826.588752  	0.009524 
1828.517568  	0.008891 
1830.446384  	0.009400 
1832.375200  	0.010141 
1834.304016  	0.010081 
1836.232832  	0.009848 
1838.161648  	0.010315 
1840.090464  	0.010251 
1842.019280  	0.009476 
1843.948096  	0.008715 
1845.876912  	0.009629 
1847.805728  	0.009914 
1849.734544  	0.010127 
1851.663360  	0.010021 
1853.592176  	0.010052 
1855.520992  	0.009783 
1857.449808  	0.009971 
1859.378624  	0.009972 
1861.307440  	0.009944 
1863.236256  	0.009563 
1865.165072  	0.009273 
1867.093888  	0.008654 
1869.022704  	0.009136 
1870.951520  	0.009672 
1872.880336  	0.009949 
1874.809152  	0.009683 
1876.737968  	0.009834 
1878.666784  	0.009567 
1880.595600  	0.009667 
1882.524416  	0.009760 
1884.453232  	0.009710 
1886.382048  	0.009329 
1888.310864  	0.009333 
1890.239680  	0.009525 
1892.168496  	0.009961 
1894.097312  	0.009575 
1896.026128  	0.009824 
1897.954944  	0.009631 
1899.883760  	0.009550 
1901.812576  	0.009217 
1903.741392  	0.009400 
1905.670208  	0.009258 
1907.599024  	0.009382 
1909.527840  	0.009141 
1911.456656  	0.009853 
1913.385472  	0.010033 
1915.314288  	0.009895 
1917.243104  	0.009378 
1919.171920  	0.009565 
1921.100736  	0.009354 
1923.029552  	0.009665 
1924.958368  	0.009482 
1926.887184  	0.009654 
1928.816000  	0.009551 
1930.744816  	0.009494 
1932.673632  	0.009097 
1934.602448  	0.009514 
1936.531264  	0.010051 
1938.460080  	0.009994 
1940.388896  	0.009379 
1942.317712  	0.009142 
1944.246528  	0.009408 
1946.175344  	0.010290 
1948.104160  	0.009229 
1950.032976  	0.009307 
1951.961792  	0.009535 
1953.890608  	0.009688 
1955.819424  	0.009279 
1957.748240  	0.009572 
1959.677056  	0.009753 
1961.605872  	0.009458 
1963.534688  	0.008453 
1965.463504  	0.009585 
1967.392320  	0.009046 
1969.321136  	0.008333 
1971.249952  	0.008750 
1973.178768  	0.010819 
1975.107584  	0.009937 
1977.036400  	0.009970 
1978.965216  	0.011686 
1980.894032  	0.012048 
1982.822848  	0.010801 
1984.751664  	0.011343 
1986.680480  	0.010950 
1988.609296  	0.011250 
1990.538112  	0.010834 
1992.466928  	0.010853 
1994.395744  	0.010249 
1996.324560  	0.010209 
1998.253376  	0.009865 
2000.182192  	0.009793 
2002.111008  	0.009633 
2004.039824  	0.010424 
2005.968640  	0.010142 
2007.897456  	0.010685 
2009.826272  	0.010137 
2011.755088  	0.009044 
2013.683904  	0.009207 
2015.612720  	0.010586 
2017.541536  	0.009806 
2019.470352  	0.009493 
2021.399168  	0.008544 
2023.327984  	0.009249 
2025.256800  	0.009426 
2027.185616  	0.009470 
2029.114432  	0.008961 
2031.043248  	0.010293 
2032.972064  	0.009862 
2034.900880  	0.009679 
2036.829696  	0.009708 
2038.758512  	0.010043 
2040.687328  	0.009772 
2042.616144  	0.009159 
2044.544960  	0.008971 
2046.473776  	0.009810 
2048.402592  	0.010009 
2050.331408  	0.011147 
2052.260224  	0.010559 
2054.189040  	0.009964 
2056.117856  	0.009208 
2058.046672  	0.009259 
2059.975488  	0.009305 
2061.904304  	0.009655 
2063.833120  	0.010232 
2065.761936  	0.010739 
2067.690752  	0.010405 
2069.619568  	0.010077 
2071.548384  	0.009295 
2073.477200  	0.009463 
2075.406016  	0.009747 
2077.334832  	0.010179 
2079.263648  	0.009826 
2081.192464  	0.010178 
2083.121280  	0.010781 
2085.050096  	0.010699 
2086.978912  	0.010223 
2088.907728  	0.010219 
2090.836544  	0.009714 
2092.765360  	0.009572 
2094.694176  	0.010046 
2096.622992  	0.010638 
2098.551808  	0.010055 
2100.480624  	0.009930 
2102.409440  	0.009708 
2104.338256  	0.010024 
2106.267072  	0.010098 
2108.195888  	0.010408 
2110.124704  	0.010766 
2112.053520  	0.011197 
2113.982336  	0.011123 
2115.911152  	0.011041 
2117.839968  	0.010596 
2119.768784  	0.010344 
2121.697600  	0.010078 
2123.626416  	0.009755 
2125.555232  	0.009252 
2127.484048  	0.009713 
2129.412864  	0.010176 
2131.341680  	0.009445 
2133.270496  	0.009365 
2135.199312  	0.010054 
2137.128128  	0.010292 
2139.056944  	0.010652 
2140.985760  	0.009401 
2142.914576  	0.009764 
2144.843392  	0.010180 
2146.772208  	0.010423 
2148.701024  	0.010673 
2150.629840  	0.010421 
2152.558656  	0.009104 
2154.487472  	0.008583 
2156.416288  	0.007670 
2158.345104  	0.009910 
2160.273920  	0.013959 
2162.202736  	0.015106 
2164.131552  	0.014368 
2166.060368  	0.014977 
2167.989184  	0.013308 
2169.918000  	0.012169 
2171.846816  	0.011795 
2173.775632  	0.011886 
2175.704448  	0.011725 
2177.633264  	0.012423 
2179.562080  	0.012162 
2181.490896  	0.011466 
2183.419712  	0.011312 
2185.348528  	0.012159 
2187.277344  	0.012253 
2189.206160  	0.012600 
2191.134976  	0.013163 
2193.063792  	0.014119 
2194.992608  	0.013745 
2196.921424  	0.012779 
2198.850240  	0.012522 
2200.779056  	0.012277 
2202.707872  	0.011940 
2204.636688  	0.011900 
2206.565504  	0.011757 
2208.494320  	0.012425 
2210.423136  	0.011717 
2212.351952  	0.011286 
2214.280768  	0.011181 
2216.209584  	0.011162 
2218.138400  	0.011192 
2220.067216  	0.010784 
2221.996032  	0.010441 
2223.924848  	0.010762 
2225.853664  	0.011098 
2227.782480  	0.011500 
2229.711296  	0.011636 
2231.640112  	0.011807 
2233.568928  	0.011708 
2235.497744  	0.011268 
2237.426560  	0.010499 
2239.355376  	0.010636 
2241.284192  	0.010585 
2243.213008  	0.010637 
2245.141824  	0.010769 
2247.070640  	0.010544 
2248.999456  	0.010297 
2250.928272  	0.010657 
2252.857088  	0.010537 
2254.785904  	0.010438 
2256.714720  	0.011196 
2258.643536  	0.011853 
2260.572352  	0.011341 
2262.501168  	0.011116 
2264.429984  	0.011135 
2266.358800  	0.011658 
2268.287616  	0.011712 
2270.216432  	0.011481 
2272.145248  	0.011169 
2274.074064  	0.011364 
2276.002880  	0.011370 
2277.931696  	0.011992 
2279.860512  	0.012580 
2281.789328  	0.012443 
2283.718144  	0.012134 
2285.646960  	0.012335 
2287.575776  	0.012508 
2289.504592  	0.012519 
2291.433408  	0.012151 
2293.362224  	0.012018 
2295.291040  	0.011874 
2297.219856  	0.011846 
2299.148672  	0.011752 
2301.077488  	0.011785 
2303.006304  	0.011897 
2304.935120  	0.011842 
2306.863936  	0.011507 
2308.792752  	0.011321 
2310.721568  	0.011212 
2312.650384  	0.011059 
2314.579200  	0.010641 
2316.508016  	0.010319 
2318.436832  	0.009735 
2320.365648  	0.009150 
2322.294464  	0.008828 
2324.223280  	0.008495 
2326.152096  	0.007124 
2328.080912  	0.005815 
2330.009728  	0.005213 
2331.938544  	0.004917 
2333.867360  	0.003976 
2335.796176  	0.003394 
2337.724992  	0.003235 
2339.653808  	0.002872 
2341.582624  	0.002643 
2343.511440  	0.003732 
2345.440256  	0.005556 
2347.369072  	0.007503 
2349.297888  	0.007258 
2351.226704  	0.005172 
2353.155520  	0.002934 
2355.084336  	0.001035 
2357.013152  	-0.000320 
2358.941968  	-0.000866 
2360.870784  	-0.001111 
2362.799600  	-0.000393 
2364.728416  	0.000271 
2366.657232  	0.001717 
2368.586048  	0.003282 
2370.514864  	0.004976 
2372.443680  	0.006500 
2374.372496  	0.008084 
2376.301312  	0.009506 
2378.230128  	0.010749 
2380.158944  	0.011316 
2382.087760  	0.011691 
2384.016576  	0.011959 
2385.945392  	0.012085 
2387.874208  	0.011992 
2389.803024  	0.011945 
2391.731840  	0.011827 
2393.660656  	0.011920 
2395.589472  	0.012074 
2397.518288  	0.012083 
2399.447104  	0.012014 
2401.375920  	0.011856 
2403.304736  	0.011948 
2405.233552  	0.012219 
2407.162368  	0.012322 
2409.091184  	0.012175 
2411.020000  	0.012118 
2412.948816  	0.012419 
2414.877632  	0.012364 
2416.806448  	0.012282 
2418.735264  	0.012506 
2420.664080  	0.012616 
2422.592896  	0.012452 
2424.521712  	0.012467 
2426.450528  	0.012632 
2428.379344  	0.012629 
2430.308160  	0.012683 
2432.236976  	0.012754 
2434.165792  	0.013042 
2436.094608  	0.013432 
2438.023424  	0.013571 
2439.952240  	0.013683 
2441.881056  	0.013687 
2443.809872  	0.013662 
2445.738688  	0.013528 
2447.667504  	0.013528 
2449.596320  	0.013592 
2451.525136  	0.013793 
2453.453952  	0.013881 
2455.382768  	0.014014 
2457.311584  	0.014163 
2459.240400  	0.014098 
2461.169216  	0.013901 
2463.098032  	0.013923 
2465.026848  	0.013959 
2466.955664  	0.013969 
2468.884480  	0.013834 
2470.813296  	0.013814 
2472.742112  	0.013994 
2474.670928  	0.014077 
2476.599744  	0.014170 
2478.528560  	0.014292 
2480.457376  	0.014565 
2482.386192  	0.014498 
2484.315008  	0.014320 
2486.243824  	0.014542 
2488.172640  	0.014633 
2490.101456  	0.014630 
2492.030272  	0.014775 
2493.959088  	0.014652 
2495.887904  	0.014543 
2497.816720  	0.014687 
2499.745536  	0.014707 
2501.674352  	0.014914 
2503.603168  	0.014911 
2505.531984  	0.014876 
2507.460800  	0.014921 
2509.389616  	0.015019 
2511.318432  	0.014892 
2513.247248  	0.015068 
2515.176064  	0.015175 
2517.104880  	0.015330 
2519.033696  	0.015581 
2520.962512  	0.015574 
2522.891328  	0.015661 
2524.820144  	0.015736 
2526.748960  	0.015676 
2528.677776  	0.015822 
2530.606592  	0.016032 
2532.535408  	0.015947 
2534.464224  	0.016022 
2536.393040  	0.016140 
2538.321856  	0.015948 
2540.250672  	0.016127 
2542.179488  	0.016338 
2544.108304  	0.016411 
2546.037120  	0.016317 
2547.965936  	0.016727 
2549.894752  	0.016842 
2551.823568  	0.016712 
2553.752384  	0.016736 
2555.681200  	0.016814 
2557.610016  	0.016870 
2559.538832  	0.017021 
2561.467648  	0.017120 
2563.396464  	0.017308 
2565.325280  	0.017416 
2567.254096  	0.017445 
2569.182912  	0.017289 
2571.111728  	0.017133 
2573.040544  	0.016938 
2574.969360  	0.017066 
2576.898176  	0.017305 
2578.826992  	0.017766 
2580.755808  	0.017815 
2582.684624  	0.017723 
2584.613440  	0.017727 
2586.542256  	0.017968 
2588.471072  	0.018132 
2590.399888  	0.018062 
2592.328704  	0.017976 
2594.257520  	0.018062 
2596.186336  	0.018323 
2598.115152  	0.018447 
2600.043968  	0.018335 
2601.972784  	0.018490 
2603.901600  	0.018660 
2605.830416  	0.018721 
2607.759232  	0.018568 
2609.688048  	0.018708 
2611.616864  	0.018874 
2613.545680  	0.018993 
2615.474496  	0.019109 
2617.403312  	0.019185 
2619.332128  	0.019298 
2621.260944  	0.019402 
2623.189760  	0.019393 
2625.118576  	0.019468 
2627.047392  	0.019620 
2628.976208  	0.019947 
2630.905024  	0.020089 
2632.833840  	0.020289 
2634.762656  	0.020416 
2636.691472  	0.020374 
2638.620288  	0.020327 
2640.549104  	0.020454 
2642.477920  	0.020671 
2644.406736  	0.020756 
2646.335552  	0.020923 
2648.264368  	0.021101 
2650.193184  	0.021192 
2652.122000  	0.021442 
2654.050816  	0.021596 
2655.979632  	0.021539 
2657.908448  	0.021615 
2659.837264  	0.021742 
2661.766080  	0.021770 
2663.694896  	0.021850 
2665.623712  	0.021805 
2667.552528  	0.021838 
2669.481344  	0.022059 
2671.410160  	0.022255 
2673.338976  	0.022304 
2675.267792  	0.022448 
2677.196608  	0.022585 
2679.125424  	0.022707 
2681.054240  	0.022754 
2682.983056  	0.022896 
2684.911872  	0.023070 
2686.840688  	0.023120 
2688.769504  	0.023261 
2690.698320  	0.023455 
2692.627136  	0.023549 
2694.555952  	0.023542 
2696.484768  	0.023397 
2698.413584  	0.023530 
2700.342400  	0.023775 
2702.271216  	0.023958 
2704.200032  	0.024214 
2706.128848  	0.024362 
2708.057664  	0.024474 
2709.986480  	0.024556 
2711.915296  	0.024619 
2713.844112  	0.024722 
2715.772928  	0.024847 
2717.701744  	0.025062 
2719.630560  	0.025124 
2721.559376  	0.025262 
2723.488192  	0.025437 
2725.417008  	0.025551 
2727.345824  	0.025670 
2729.274640  	0.025726 
2731.203456  	0.025702 
2733.132272  	0.025812 
2735.061088  	0.026110 
2736.989904  	0.026329 
2738.918720  	0.026377 
2740.847536  	0.026392 
2742.776352  	0.026444 
2744.705168  	0.026582 
2746.633984  	0.026653 
2748.562800  	0.026701 
2750.491616  	0.026864 
2752.420432  	0.026980 
2754.349248  	0.026970 
2756.278064  	0.027016 
2758.206880  	0.027102 
2760.135696  	0.027349 
2762.064512  	0.027421 
2763.993328  	0.027453 
2765.922144  	0.027554 
2767.850960  	0.027496 
2769.779776  	0.027432 
2771.708592  	0.027637 
2773.637408  	0.027794 
2775.566224  	0.027813 
2777.495040  	0.027753 
2779.423856  	0.027821 
2781.352672  	0.027990 
2783.281488  	0.028144 
2785.210304  	0.028181 
2787.139120  	0.028296 
2789.067936  	0.028512 
2790.996752  	0.028574 
2792.925568  	0.028660 
2794.854384  	0.028774 
2796.783200  	0.028819 
2798.712016  	0.028762 
2800.640832  	0.028780 
2802.569648  	0.029031 
2804.498464  	0.029181 
2806.427280  	0.029220 
2808.356096  	0.029353 
2810.284912  	0.029553 
2812.213728  	0.029580 
2814.142544  	0.029565 
2816.071360  	0.029731 
2818.000176  	0.029832 
2819.928992  	0.029845 
2821.857808  	0.029852 
2823.786624  	0.029811 
2825.715440  	0.029803 
2827.644256  	0.029803 
2829.573072  	0.029915 
2831.501888  	0.029881 
2833.430704  	0.029895 
2835.359520  	0.029831 
2837.288336  	0.029757 
2839.217152  	0.029700 
2841.145968  	0.029642 
2843.074784  	0.029619 
2845.003600  	0.029703 
2846.932416  	0.029921 
2848.861232  	0.030057 
2850.790048  	0.030010 
2852.718864  	0.030051 
2854.647680  	0.030192 
2856.576496  	0.030352 
2858.505312  	0.030432 
2860.434128  	0.030579 
2862.362944  	0.030581 
2864.291760  	0.030597 
2866.220576  	0.030740 
2868.149392  	0.031004 
2870.078208  	0.031487 
2872.007024  	0.031916 
2873.935840  	0.032277 
2875.864656  	0.032757 
2877.793472  	0.033348 
2879.722288  	0.033935 
2881.651104  	0.034287 
2883.579920  	0.034559 
2885.508736  	0.034909 
2887.437552  	0.035236 
2889.366368  	0.035493 
2891.295184  	0.035578 
2893.224000  	0.035612 
2895.152816  	0.035841 
2897.081632  	0.035675 
2899.010448  	0.035492 
2900.939264  	0.035740 
2902.868080  	0.035944 
2904.796896  	0.036138 
2906.725712  	0.036324 
2908.654528  	0.036451 
2910.583344  	0.036785 
2912.512160  	0.037336 
2914.440976  	0.037785 
2916.369792  	0.038094 
2918.298608  	0.038512 
2920.227424  	0.039105 
2922.156240  	0.039787 
2924.085056  	0.040275 
2926.013872  	0.040766 
2927.942688  	0.041386 
2929.871504  	0.042031 
2931.800320  	0.042676 
2933.729136  	0.043160 
2935.657952  	0.043543 
2937.586768  	0.043943 
2939.515584  	0.044016 
2941.444400  	0.044258 
2943.373216  	0.044681 
2945.302032  	0.044929 
2947.230848  	0.045008 
2949.159664  	0.045056 
2951.088480  	0.045046 
2953.017296  	0.045042 
2954.946112  	0.044911 
2956.874928  	0.044754 
2958.803744  	0.044514 
2960.732560  	0.044362 
2962.661376  	0.044302 
2964.590192  	0.044151 
2966.519008  	0.044093 
2968.447824  	0.043930 
2970.376640  	0.043761 
2972.305456  	0.043578 
2974.234272  	0.043273 
2976.163088  	0.042955 
2978.091904  	0.042772 
2980.020720  	0.042653 
2981.949536  	0.042575 
2983.878352  	0.042490 
2985.807168  	0.042496 
2987.735984  	0.042630 
2989.664800  	0.042590 
2991.593616  	0.042597 
2993.522432  	0.042424 
2995.451248  	0.042286 
2997.380064  	0.042486 
2999.308880  	0.042726 
3001.237696  	0.042895 
3003.166512  	0.043016 
3005.095328  	0.042991 
3007.024144  	0.043049 
3008.952960  	0.043220 
3010.881776  	0.043525 
3012.810592  	0.043760 
3014.739408  	0.043795 
3016.668224  	0.044008 
3018.597040  	0.044124 
3020.525856  	0.044196 
3022.454672  	0.044433 
3024.383488  	0.044603 
3026.312304  	0.044757 
3028.241120  	0.044881 
3030.169936  	0.044954 
3032.098752  	0.045369 
3034.027568  	0.045467 
3035.956384  	0.045326 
3037.885200  	0.045567 
3039.814016  	0.046007 
3041.742832  	0.046404 
3043.671648  	0.046632 
3045.600464  	0.046777 
3047.529280  	0.046910 
3049.458096  	0.047234 
3051.386912  	0.047358 
3053.315728  	0.047634 
3055.244544  	0.048119 
3057.173360  	0.048544 
3059.102176  	0.048898 
3061.030992  	0.049160 
3062.959808  	0.049382 
3064.888624  	0.049755 
3066.817440  	0.050245 
3068.746256  	0.050583 
3070.675072  	0.050871 
3072.603888  	0.051390 
3074.532704  	0.051905 
3076.461520  	0.052280 
3078.390336  	0.052446 
3080.319152  	0.052734 
3082.247968  	0.053300 
3084.176784  	0.053909 
3086.105600  	0.054168 
3088.034416  	0.054436 
3089.963232  	0.054873 
3091.892048  	0.055202 
3093.820864  	0.055473 
3095.749680  	0.055906 
3097.678496  	0.056145 
3099.607312  	0.056426 
3101.536128  	0.056869 
3103.464944  	0.057339 
3105.393760  	0.057726 
3107.322576  	0.058089 
3109.251392  	0.058360 
3111.180208  	0.058564 
3113.109024  	0.058781 
3115.037840  	0.058929 
3116.966656  	0.059171 
3118.895472  	0.059563 
3120.824288  	0.059817 
3122.753104  	0.060173 
3124.681920  	0.060590 
3126.610736  	0.060757 
3128.539552  	0.060873 
3130.468368  	0.060919 
3132.397184  	0.061064 
3134.326000  	0.061384 
3136.254816  	0.061725 
3138.183632  	0.062025 
3140.112448  	0.062124 
3142.041264  	0.062275 
3143.970080  	0.062611 
3145.898896  	0.062910 
3147.827712  	0.063075 
3149.756528  	0.063362 
3151.685344  	0.063836 
3153.614160  	0.064230 
3155.542976  	0.064383 
3157.471792  	0.064587 
3159.400608  	0.065119 
3161.329424  	0.065523 
3163.258240  	0.065810 
3165.187056  	0.066065 
3167.115872  	0.066169 
3169.044688  	0.066405 
3170.973504  	0.066546 
3172.902320  	0.066636 
3174.831136  	0.066846 
3176.759952  	0.067167 
3178.688768  	0.067500 
3180.617584  	0.067617 
3182.546400  	0.067334 
3184.475216  	0.067456 
3186.404032  	0.067829 
3188.332848  	0.067975 
3190.261664  	0.068220 
3192.190480  	0.068267 
3194.119296  	0.068080 
3196.048112  	0.068052 
3197.976928  	0.068157 
3199.905744  	0.068095 
3201.834560  	0.068113 
3203.763376  	0.068339 
3205.692192  	0.068447 
3207.621008  	0.068263 
3209.549824  	0.067956 
3211.478640  	0.067782 
3213.407456  	0.067528 
3215.336272  	0.067546 
3217.265088  	0.067495 
3219.193904  	0.067110 
3221.122720  	0.066827 
3223.051536  	0.066697 
3224.980352  	0.066436 
3226.909168  	0.066055 
3228.837984  	0.065887 
3230.766800  	0.066040 
3232.695616  	0.065973 
3234.624432  	0.065790 
3236.553248  	0.065664 
3238.482064  	0.065490 
3240.410880  	0.065347 
3242.339696  	0.065368 
3244.268512  	0.065319 
3246.197328  	0.065318 
3248.126144  	0.065374 
3250.054960  	0.065527 
3251.983776  	0.065409 
3253.912592  	0.065387 
3255.841408  	0.065357 
3257.770224  	0.065490 
3259.699040  	0.065803 
3261.627856  	0.065976 
3263.556672  	0.066022 
3265.485488  	0.066025 
3267.414304  	0.066103 
3269.343120  	0.066155 
3271.271936  	0.066386 
3273.200752  	0.066642 
3275.129568  	0.066681 
3277.058384  	0.066750 
3278.987200  	0.066898 
3280.916016  	0.066890 
3282.844832  	0.066898 
3284.773648  	0.067021 
3286.702464  	0.067170 
3288.631280  	0.067369 
3290.560096  	0.067583 
3292.488912  	0.067896 
3294.417728  	0.068065 
3296.346544  	0.068179 
3298.275360  	0.068353 
3300.204176  	0.068622 
3302.132992  	0.068881 
3304.061808  	0.069156 
3305.990624  	0.069442 
3307.919440  	0.069503 
3309.848256  	0.069507 
3311.777072  	0.069553 
3313.705888  	0.069863 
3315.634704  	0.070309 
3317.563520  	0.070475 
3319.492336  	0.070466 
3321.421152  	0.070576 
3323.349968  	0.070845 
3325.278784  	0.071024 
3327.207600  	0.071134 
3329.136416  	0.071169 
3331.065232  	0.071128 
3332.994048  	0.071180 
3334.922864  	0.071308 
3336.851680  	0.071341 
3338.780496  	0.071208 
3340.709312  	0.071035 
3342.638128  	0.070871 
3344.566944  	0.070651 
3346.495760  	0.070431 
3348.424576  	0.070395 
3350.353392  	0.070267 
3352.282208  	0.069967 
3354.211024  	0.069808 
3356.139840  	0.069692 
3358.068656  	0.069334 
3359.997472  	0.069024 
3361.926288  	0.068752 
3363.855104  	0.068380 
3365.783920  	0.068056 
3367.712736  	0.067939 
3369.641552  	0.067702 
3371.570368  	0.067300 
3373.499184  	0.067031 
3375.428000  	0.066748 
3377.356816  	0.066396 
3379.285632  	0.066265 
3381.214448  	0.066114 
3383.143264  	0.065838 
3385.072080  	0.065530 
3387.000896  	0.065188 
3388.929712  	0.064817 
3390.858528  	0.064464 
3392.787344  	0.064091 
3394.716160  	0.063632 
3396.644976  	0.063363 
3398.573792  	0.063144 
3400.502608  	0.062679 
3402.431424  	0.062312 
3404.360240  	0.062181 
3406.289056  	0.061893 
3408.217872  	0.061434 
3410.146688  	0.060911 
3412.075504  	0.060874 
3414.004320  	0.060794 
3415.933136  	0.060230 
3417.861952  	0.059607 
3419.790768  	0.059286 
3421.719584  	0.058984 
3423.648400  	0.058641 
3425.577216  	0.058324 
3427.506032  	0.058041 
3429.434848  	0.057651 
3431.363664  	0.057288 
3433.292480  	0.057034 
3435.221296  	0.056842 
3437.150112  	0.056471 
3439.078928  	0.056111 
3441.007744  	0.055742 
3442.936560  	0.055540 
3444.865376  	0.054953 
3446.794192  	0.054115 
3448.723008  	0.053885 
3450.651824  	0.053572 
3452.580640  	0.053036 
3454.509456  	0.052595 
3456.438272  	0.052274 
3458.367088  	0.051858 
3460.295904  	0.051433 
3462.224720  	0.050940 
3464.153536  	0.050318 
3466.082352  	0.049948 
3468.011168  	0.049742 
3469.939984  	0.049277 
3471.868800  	0.048642 
3473.797616  	0.048162 
3475.726432  	0.047837 
3477.655248  	0.047209 
3479.584064  	0.046533 
3481.512880  	0.046155 
3483.441696  	0.045788 
3485.370512  	0.045108 
3487.299328  	0.044621 
3489.228144  	0.044249 
3491.156960  	0.043613 
3493.085776  	0.043151 
3495.014592  	0.042597 
3496.943408  	0.042162 
3498.872224  	0.041720 
3500.801040  	0.041239 
3502.729856  	0.040676 
3504.658672  	0.040277 
3506.587488  	0.039668 
3508.516304  	0.039090 
3510.445120  	0.039118 
3512.373936  	0.039069 
3514.302752  	0.038796 
3516.231568  	0.038208 
3518.160384  	0.037623 
3520.089200  	0.037168 
3522.018016  	0.036509 
3523.946832  	0.036246 
3525.875648  	0.036099 
3527.804464  	0.035542 
3529.733280  	0.035394 
3531.662096  	0.035221 
3533.590912  	0.034756 
3535.519728  	0.034300 
3537.448544  	0.034159 
3539.377360  	0.033890 
3541.306176  	0.033191 
3543.234992  	0.032449 
3545.163808  	0.032166 
3547.092624  	0.032182 
3549.021440  	0.031698 
3550.950256  	0.031064 
3552.879072  	0.031038 
3554.807888  	0.031002 
3556.736704  	0.030511 
3558.665520  	0.030122 
3560.594336  	0.029996 
3562.523152  	0.029339 
3564.451968  	0.028172 
3566.380784  	0.027451 
3568.309600  	0.027941 
3570.238416  	0.028055 
3572.167232  	0.027529 
3574.096048  	0.027072 
3576.024864  	0.026810 
3577.953680  	0.026394 
3579.882496  	0.025849 
3581.811312  	0.025449 
3583.740128  	0.024657 
3585.668944  	0.023378 
3587.597760  	0.023422 
3589.526576  	0.024089 
3591.455392  	0.023018 
3593.384208  	0.022051 
3595.313024  	0.021740 
3597.241840  	0.021443 
3599.170656  	0.020811 
3601.099472  	0.020529 
3603.028288  	0.020319 
3604.957104  	0.019370 
3606.885920  	0.018051 
3608.814736  	0.018129 
3610.743552  	0.017815 
3612.672368  	0.016584 
3614.601184  	0.016498 
3616.530000  	0.015641 
3618.458816  	0.014845 
3620.387632  	0.015473 
3622.316448  	0.015339 
3624.245264  	0.014527 
3626.174080  	0.012714 
3628.102896  	0.010914 
3630.031712  	0.012669 
3631.960528  	0.012953 
3633.889344  	0.012344 
3635.818160  	0.012003 
3637.746976  	0.011612 
3639.675792  	0.011713 
3641.604608  	0.011348 
3643.533424  	0.010198 
3645.462240  	0.008302 
3647.391056  	0.006513 
3649.319872  	0.006448 
3651.248688  	0.008718 
3653.177504  	0.008999 
3655.106320  	0.007583 
3657.035136  	0.008122 
3658.963952  	0.008414 
3660.892768  	0.007737 
3662.821584  	0.007185 
3664.750400  	0.006685 
3666.679216  	0.005455 
3668.608032  	0.003490 
3670.536848  	0.003999 
3672.465664  	0.004369 
3674.394480  	0.001944 
3676.323296  	0.004025 
3678.252112  	0.005497 
3680.180928  	0.005461 
3682.109744  	0.005478 
3684.038560  	0.005089 
3685.967376  	0.003665 
3687.896192  	0.002049 
3689.825008  	0.002755 
3691.753824  	0.004202 
3693.682640  	0.004699 
3695.611456  	0.004121 
3697.540272  	0.004078 
3699.469088  	0.003445 
3701.397904  	0.003459 
3703.326720  	0.004429 
3705.255536  	0.004109 
3707.184352  	0.003095 
3709.113168  	0.002009 
3711.041984  	0.001587 
3712.970800  	0.003381 
3714.899616  	0.004611 
3716.828432  	0.004189 
3718.757248  	0.003328 
3720.686064  	0.002722 
3722.614880  	0.002832 
3724.543696  	0.002952 
3726.472512  	0.003259 
3728.401328  	0.003483 
3730.330144  	0.001712 
3732.258960  	0.000141 
3734.187776  	0.000406 
3736.116592  	0.002537 
3738.045408  	0.003468 
3739.974224  	0.002800 
3741.903040  	0.001385 
3743.831856  	0.000600 
3745.760672  	0.002951 
3747.689488  	0.001283 
3749.618304  	-0.000285 
3751.547120  	0.001325 
3753.475936  	0.003992 
3755.404752  	0.003754 
3757.333568  	0.002798 
3759.262384  	0.003001 
3761.191200  	0.004166 
3763.120016  	0.003799 
3765.048832  	0.003253 
3766.977648  	0.003501 
3768.906464  	0.003093 
3770.835280  	0.004184 
3772.764096  	0.004908 
3774.692912  	0.004567 
3776.621728  	0.003665 
3778.550544  	0.002936 
3780.479360  	0.003851 
3782.408176  	0.004039 
3784.336992  	0.003712 
3786.265808  	0.004182 
3788.194624  	0.004540 
3790.123440  	0.004552 
3792.052256  	0.004428 
3793.981072  	0.003702 
3795.909888  	0.003094 
3797.838704  	0.003206 
3799.767520  	0.001678 
3801.696336  	0.002043 
3803.625152  	0.003555 
3805.553968  	0.002525 
3807.482784  	0.003529 
3809.411600  	0.004844 
3811.340416  	0.004646 
3813.269232  	0.003391 
3815.198048  	0.001789 
3817.126864  	0.002760 
3819.055680  	0.001701 
3820.984496  	0.001594 
3822.913312  	0.004443 
3824.842128  	0.004057 
3826.770944  	0.003720 
3828.699760  	0.003826 
3830.628576  	0.002953 
3832.557392  	0.002919 
3834.486208  	0.002485 
3836.415024  	0.001526 
3838.343840  	0.002048 
3840.272656  	0.002916 
3842.201472  	0.003200 
3844.130288  	0.003699 
3846.059104  	0.004452 
3847.987920  	0.004000 
3849.916736  	0.002309 
3851.845552  	-0.000353 
3853.774368  	0.001547 
3855.703184  	0.004549 
3857.632000  	0.004330 
3859.560816  	0.003715 
3861.489632  	0.002897 
3863.418448  	0.002668 
3865.347264  	0.003503 
3867.276080  	0.003211 
3869.204896  	0.002339 
3871.133712  	0.004065 
3873.062528  	0.003574 
3874.991344  	0.004148 
3876.920160  	0.004075 
3878.848976  	0.002743 
3880.777792  	0.003231 
3882.706608  	0.003904 
3884.635424  	0.003097 
3886.564240  	0.004231 
3888.493056  	0.004082 
3890.421872  	0.003135 
3892.350688  	0.004122 
3894.279504  	0.004558 
3896.208320  	0.003971 
3898.137136  	0.003184 
3900.065952  	0.003042 
3901.994768  	0.003092 
3903.923584  	0.003803 
3905.852400  	0.004997 
3907.781216  	0.004909 
3909.710032  	0.004677 
3911.638848  	0.004654 
3913.567664  	0.004334 
3915.496480  	0.003927 
3917.425296  	0.004543 
3919.354112  	0.004799 
3921.282928  	0.004705 
3923.211744  	0.004443 
3925.140560  	0.004646 
3927.069376  	0.004574 
3928.998192  	0.004101 
3930.927008  	0.004282 
3932.855824  	0.004948 
3934.784640  	0.005091 
3936.713456  	0.005056 
3938.642272  	0.004984 
3940.571088  	0.004551 
3942.499904  	0.004623 
3944.428720  	0.005032 
3946.357536  	0.004754 
3948.286352  	0.004648 
3950.215168  	0.004685 
3952.143984  	0.004603 
3954.072800  	0.004631 
3956.001616  	0.004652 
3957.930432  	0.004747 
3959.859248  	0.004937 
3961.788064  	0.004932 
3963.716880  	0.004975 
3965.645696  	0.004887 
3967.574512  	0.005008 
3969.503328  	0.005118 
3971.432144  	0.004960 
3973.360960  	0.004872 
3975.289776  	0.005109 
3977.218592  	0.005187 
3979.147408  	0.005071 
3981.076224  	0.004972 
3983.005040  	0.004999 
3984.933856  	0.005134 
3986.862672  	0.005250 
3988.791488  	0.005089 
3990.720304  	0.005020 
3992.649120  	0.005061 
3994.577936  	0.005046 
3996.506752  	0.004977 
3998.435568  	0.005015 
4000.364384  	0.005029 