##TITLE=No Description
##DATA TYPE=INFRARED SPECTRUM
##XUNITS=1/CM
##YUNITS=Abs
399.264912  	0.601039 
401.193728  	0.595912 
403.122544  	0.605452 
405.051360  	0.597728 
406.980176  	0.587368 
408.908992  	0.578767 
410.837808  	0.580062 
412.766624  	0.565259 
414.695440  	0.566301 
416.624256  	0.566687 
418.553072  	0.571683 
420.481888  	0.573925 
422.410704  	0.577821 
424.339520  	0.569277 
426.268336  	0.558488 
428.197152  	0.553005 
430.125968  	0.552206 
432.054784  	0.544308 
433.983600  	0.544116 
435.912416  	0.535863 
437.841232  	0.537254 
439.770048  	0.537957 
441.698864  	0.530734 
443.627680  	0.522194 
445.556496  	0.523210 
447.485312  	0.524457 
449.414128  	0.522892 
451.342944  	0.519513 
453.271760  	0.524276 
455.200576  	0.520972 
457.129392  	0.513957 
459.058208  	0.509083 
460.987024  	0.515543 
462.915840  	0.518682 
464.844656  	0.523189 
466.773472  	0.520661 
468.702288  	0.520639 
470.631104  	0.516244 
472.559920  	0.516541 
474.488736  	0.512776 
476.417552  	0.513578 
478.346368  	0.514734 
480.275184  	0.514750 
482.204000  	0.512743 
484.132816  	0.519194 
486.061632  	0.518209 
487.990448  	0.514553 
489.919264  	0.510413 
491.848080  	0.508808 
493.776896  	0.506274 
495.705712  	0.507903 
497.634528  	0.503761 
499.563344  	0.500918 
501.492160  	0.500405 
503.420976  	0.504961 
505.349792  	0.504707 
507.278608  	0.504356 
509.207424  	0.502116 
511.136240  	0.502502 
513.065056  	0.503709 
514.993872  	0.505788 
516.922688  	0.503238 
518.851504  	0.504325 
520.780320  	0.502958 
522.709136  	0.503268 
524.637952  	0.502281 
526.566768  	0.501143 
528.495584  	0.496940 
530.424400  	0.494303 
532.353216  	0.490981 
534.282032  	0.486283 
536.210848  	0.483151 
538.139664  	0.482612 
540.068480  	0.478026 
541.997296  	0.472539 
543.926112  	0.467970 
545.854928  	0.466126 
547.783744  	0.462020 
549.712560  	0.457779 
551.641376  	0.452565 
553.570192  	0.450236 
555.499008  	0.449169 
557.427824  	0.446467 
559.356640  	0.441511 
561.285456  	0.438543 
563.214272  	0.434961 
565.143088  	0.432366 
567.071904  	0.427646 
569.000720  	0.423953 
570.929536  	0.419913 
572.858352  	0.416786 
574.787168  	0.414195 
576.715984  	0.411901 
578.644800  	0.407720 
580.573616  	0.403916 
582.502432  	0.399644 
584.431248  	0.397514 
586.360064  	0.395419 
588.288880  	0.393442 
590.217696  	0.390726 
592.146512  	0.388655 
594.075328  	0.386366 
596.004144  	0.383995 
597.932960  	0.382576 
599.861776  	0.381932 
601.790592  	0.380732 
603.719408  	0.379877 
605.648224  	0.378316 
607.577040  	0.377768 
609.505856  	0.376561 
611.434672  	0.375220 
613.363488  	0.372388 
615.292304  	0.370228 
617.221120  	0.368305 
619.149936  	0.366994 
621.078752  	0.365094 
623.007568  	0.363201 
624.936384  	0.360722 
626.865200  	0.358977 
628.794016  	0.357863 
630.722832  	0.356900 
632.651648  	0.355902 
634.580464  	0.355347 
636.509280  	0.355213 
638.438096  	0.354305 
640.366912  	0.352781 
642.295728  	0.351705 
644.224544  	0.349344 
646.153360  	0.346698 
648.082176  	0.343472 
650.010992  	0.340275 
651.939808  	0.335991 
653.868624  	0.332471 
655.797440  	0.329075 
657.726256  	0.326241 
659.655072  	0.322665 
661.583888  	0.318784 
663.512704  	0.315462 
665.441520  	0.312442 
667.370336  	0.307262 
669.299152  	0.302902 
671.227968  	0.301969 
673.156784  	0.299859 
675.085600  	0.296970 
677.014416  	0.295254 
678.943232  	0.293869 
680.872048  	0.292012 
682.800864  	0.289866 
684.729680  	0.288585 
686.658496  	0.286559 
688.587312  	0.284734 
690.516128  	0.282990 
692.444944  	0.281486 
694.373760  	0.279764 
696.302576  	0.278515 
698.231392  	0.276256 
700.160208  	0.273560 
702.089024  	0.270808 
704.017840  	0.269094 
705.946656  	0.266661 
707.875472  	0.264214 
709.804288  	0.262011 
711.733104  	0.260546 
713.661920  	0.258726 
715.590736  	0.257873 
717.519552  	0.257573 
719.448368  	0.257871 
721.377184  	0.258513 
723.306000  	0.258762 
725.234816  	0.258449 
727.163632  	0.257246 
729.092448  	0.254672 
731.021264  	0.252137 
732.950080  	0.249472 
734.878896  	0.246678 
736.807712  	0.244233 
738.736528  	0.242381 
740.665344  	0.240445 
742.594160  	0.239073 
744.522976  	0.237282 
746.451792  	0.236096 
748.380608  	0.235256 
750.309424  	0.234474 
752.238240  	0.233481 
754.167056  	0.233168 
756.095872  	0.232482 
758.024688  	0.231355 
759.953504  	0.230593 
761.882320  	0.230505 
763.811136  	0.230488 
765.739952  	0.229996 
767.668768  	0.228836 
769.597584  	0.227586 
771.526400  	0.226953 
773.455216  	0.228323 
775.384032  	0.230643 
777.312848  	0.233797 
779.241664  	0.236754 
781.170480  	0.237440 
783.099296  	0.234776 
785.028112  	0.229763 
786.956928  	0.223864 
788.885744  	0.219146 
790.814560  	0.215473 
792.743376  	0.213167 
794.672192  	0.211698 
796.601008  	0.211063 
798.529824  	0.209578 
800.458640  	0.206124 
802.387456  	0.202630 
804.316272  	0.201034 
806.245088  	0.200312 
808.173904  	0.199665 
810.102720  	0.199393 
812.031536  	0.199225 
813.960352  	0.198938 
815.889168  	0.198766 
817.817984  	0.198864 
819.746800  	0.198585 
821.675616  	0.198009 
823.604432  	0.197425 
825.533248  	0.196232 
827.462064  	0.195171 
829.390880  	0.194028 
831.319696  	0.192848 
833.248512  	0.191103 
835.177328  	0.189388 
837.106144  	0.187113 
839.034960  	0.184430 
840.963776  	0.181701 
842.892592  	0.179144 
844.821408  	0.176362 
846.750224  	0.173825 
848.679040  	0.171819 
850.607856  	0.169924 
852.536672  	0.168533 
854.465488  	0.167049 
856.394304  	0.165738 
858.323120  	0.164564 
860.251936  	0.163115 
862.180752  	0.161463 
864.109568  	0.159873 
866.038384  	0.158532 
867.967200  	0.156889 
869.896016  	0.155705 
871.824832  	0.154471 
873.753648  	0.153795 
875.682464  	0.153777 
877.611280  	0.154282 
879.540096  	0.154725 
881.468912  	0.155031 
883.397728  	0.155430 
885.326544  	0.155619 
887.255360  	0.155278 
889.184176  	0.154469 
891.112992  	0.153522 
893.041808  	0.151932 
894.970624  	0.149667 
896.899440  	0.147091 
898.828256  	0.143900 
900.757072  	0.140404 
902.685888  	0.137382 
904.614704  	0.135584 
906.543520  	0.134974 
908.472336  	0.135589 
910.401152  	0.137188 
912.329968  	0.139477 
914.258784  	0.141807 
916.187600  	0.143902 
918.116416  	0.145358 
920.045232  	0.145905 
921.974048  	0.145431 
923.902864  	0.144532 
925.831680  	0.143424 
927.760496  	0.142227 
929.689312  	0.141034 
931.618128  	0.140755 
933.546944  	0.140800 
935.475760  	0.140713 
937.404576  	0.140568 
939.333392  	0.141002 
941.262208  	0.141988 
943.191024  	0.143700 
945.119840  	0.146790 
947.048656  	0.150869 
948.977472  	0.155939 
950.906288  	0.161659 
952.835104  	0.167911 
954.763920  	0.174507 
956.692736  	0.180530 
958.621552  	0.185574 
960.550368  	0.188898 
962.479184  	0.190405 
964.408000  	0.189010 
966.336816  	0.185504 
968.265632  	0.179521 
970.194448  	0.172120 
972.123264  	0.163465 
974.052080  	0.154341 
975.980896  	0.145439 
977.909712  	0.137143 
979.838528  	0.130055 
981.767344  	0.124309 
983.696160  	0.120474 
985.624976  	0.118475 
987.553792  	0.118484 
989.482608  	0.120304 
991.411424  	0.123920 
993.340240  	0.128958 
995.269056  	0.135173 
997.197872  	0.141921 
999.126688  	0.148410 
1001.055504  	0.155066 
1002.984320  	0.161669 
1004.913136  	0.168122 
1006.841952  	0.173614 
1008.770768  	0.178537 
1010.699584  	0.182311 
1012.628400  	0.184896 
1014.557216  	0.186489 
1016.486032  	0.187524 
1018.414848  	0.188019 
1020.343664  	0.188444 
1022.272480  	0.188768 
1024.201296  	0.189052 
1026.130112  	0.189395 
1028.058928  	0.190268 
1029.987744  	0.190884 
1031.916560  	0.192405 
1033.845376  	0.195109 
1035.774192  	0.198751 
1037.703008  	0.202805 
1039.631824  	0.208152 
1041.560640  	0.214724 
1043.489456  	0.223448 
1045.418272  	0.234077 
1047.347088  	0.246940 
1049.275904  	0.260255 
1051.204720  	0.273392 
1053.133536  	0.284616 
1055.062352  	0.293537 
1056.991168  	0.299074 
1058.919984  	0.302271 
1060.848800  	0.302494 
1062.777616  	0.302271 
1064.706432  	0.300790 
1066.635248  	0.298103 
1068.564064  	0.292535 
1070.492880  	0.286741 
1072.421696  	0.281119 
1074.350512  	0.276211 
1076.279328  	0.271835 
1078.208144  	0.268456 
1080.136960  	0.265530 
1082.065776  	0.263224 
1083.994592  	0.260242 
1085.923408  	0.256831 
1087.852224  	0.252874 
1089.781040  	0.248876 
1091.709856  	0.242756 
1093.638672  	0.235871 
1095.567488  	0.227514 
1097.496304  	0.218701 
1099.425120  	0.209422 
1101.353936  	0.200165 
1103.282752  	0.190460 
1105.211568  	0.180516 
1107.140384  	0.170722 
1109.069200  	0.161196 
1110.998016  	0.152035 
1112.926832  	0.143393 
1114.855648  	0.135378 
1116.784464  	0.127543 
1118.713280  	0.120345 
1120.642096  	0.113848 
1122.570912  	0.107514 
1124.499728  	0.101442 
1126.428544  	0.095933 
1128.357360  	0.091129 
1130.286176  	0.086469 
1132.214992  	0.082437 
1134.143808  	0.079049 
1136.072624  	0.076078 
1138.001440  	0.073036 
1139.930256  	0.070135 
1141.859072  	0.067507 
1143.787888  	0.064916 
1145.716704  	0.062698 
1147.645520  	0.061008 
1149.574336  	0.059788 
1151.503152  	0.058893 
1153.431968  	0.058477 
1155.360784  	0.058371 
1157.289600  	0.058806 
1159.218416  	0.059625 
1161.147232  	0.060747 
1163.076048  	0.061950 
1165.004864  	0.063495 
1166.933680  	0.065077 
1168.862496  	0.066791 
1170.791312  	0.068952 
1172.720128  	0.071070 
1174.648944  	0.073201 
1176.577760  	0.075726 
1178.506576  	0.078220 
1180.435392  	0.080465 
1182.364208  	0.082749 
1184.293024  	0.085252 
1186.221840  	0.087837 
1188.150656  	0.090797 
1190.079472  	0.094375 
1192.008288  	0.098323 
1193.937104  	0.102884 
1195.865920  	0.108209 
1197.794736  	0.113773 
1199.723552  	0.119931 
1201.652368  	0.126554 
1203.581184  	0.133197 
1205.510000  	0.139817 
1207.438816  	0.146584 
1209.367632  	0.153194 
1211.296448  	0.159160 
1213.225264  	0.164787 
1215.154080  	0.169386 
1217.082896  	0.173556 
1219.011712  	0.176891 
1220.940528  	0.180059 
1222.869344  	0.182343 
1224.798160  	0.184042 
1226.726976  	0.185319 
1228.655792  	0.186263 
1230.584608  	0.186236 
1232.513424  	0.185334 
1234.442240  	0.183288 
1236.371056  	0.180743 
1238.299872  	0.177387 
1240.228688  	0.173363 
1242.157504  	0.168320 
1244.086320  	0.162503 
1246.015136  	0.156305 
1247.943952  	0.150114 
1249.872768  	0.143709 
1251.801584  	0.137322 
1253.730400  	0.130958 
1255.659216  	0.124892 
1257.588032  	0.118887 
1259.516848  	0.113223 
1261.445664  	0.107834 
1263.374480  	0.102909 
1265.303296  	0.098456 
1267.232112  	0.094822 
1269.160928  	0.091961 
1271.089744  	0.090011 
1273.018560  	0.089080 
1274.947376  	0.088627 
1276.876192  	0.088170 
1278.805008  	0.087371 
1280.733824  	0.085747 
1282.662640  	0.082989 
1284.591456  	0.079370 
1286.520272  	0.075649 
1288.449088  	0.072748 
1290.377904  	0.070502 
1292.306720  	0.068675 
1294.235536  	0.066571 
1296.164352  	0.063573 
1298.093168  	0.060127 
1300.021984  	0.056823 
1301.950800  	0.053785 
1303.879616  	0.051162 
1305.808432  	0.049044 
1307.737248  	0.047361 
1309.666064  	0.045837 
1311.594880  	0.044840 
1313.523696  	0.044426 
1315.452512  	0.044219 
1317.381328  	0.044317 
1319.310144  	0.044957 
1321.238960  	0.045821 
1323.167776  	0.046655 
1325.096592  	0.047205 
1327.025408  	0.047405 
1328.954224  	0.047058 
1330.883040  	0.046467 
1332.811856  	0.045570 
1334.740672  	0.044588 
1336.669488  	0.043513 
1338.598304  	0.042792 
1340.527120  	0.042666 
1342.455936  	0.042377 
1344.384752  	0.042269 
1346.313568  	0.042804 
1348.242384  	0.043894 
1350.171200  	0.045457 
1352.100016  	0.047196 
1354.028832  	0.048949 
1355.957648  	0.051040 
1357.886464  	0.052980 
1359.815280  	0.054248 
1361.744096  	0.055516 
1363.672912  	0.057819 
1365.601728  	0.059257 
1367.530544  	0.059776 
1369.459360  	0.060301 
1371.388176  	0.059717 
1373.316992  	0.058438 
1375.245808  	0.057580 
1377.174624  	0.056342 
1379.103440  	0.054749 
1381.032256  	0.053194 
1382.961072  	0.051974 
1384.889888  	0.050561 
1386.818704  	0.049446 
1388.747520  	0.048893 
1390.676336  	0.047780 
1392.605152  	0.046409 
1394.533968  	0.045904 
1396.462784  	0.045941 
1398.391600  	0.046001 
1400.320416  	0.047555 
1402.249232  	0.048132 
1404.178048  	0.049052 
1406.106864  	0.050904 
1408.035680  	0.052501 
1409.964496  	0.053911 
1411.893312  	0.055647 
1413.822128  	0.056915 
1415.750944  	0.057418 
1417.679760  	0.057080 
1419.608576  	0.058114 
1421.537392  	0.058049 
1423.466208  	0.056644 
1425.395024  	0.055572 
1427.323840  	0.053594 
1429.252656  	0.051640 
1431.181472  	0.050792 
1433.110288  	0.050064 
1435.039104  	0.048995 
1436.967920  	0.050498 
1438.896736  	0.051900 
1440.825552  	0.051912 
1442.754368  	0.052291 
1444.683184  	0.052016 
1446.612000  	0.051649 
1448.540816  	0.052378 
1450.469632  	0.052770 
1452.398448  	0.052461 
1454.327264  	0.051203 
1456.256080  	0.049923 
1458.184896  	0.052456 
1460.113712  	0.053534 
1462.042528  	0.053194 
1463.971344  	0.052890 
1465.900160  	0.055633 
1467.828976  	0.057677 
1469.757792  	0.058743 
1471.686608  	0.060636 
1473.615424  	0.066425 
1475.544240  	0.070096 
1477.473056  	0.073250 
1479.401872  	0.074263 
1481.330688  	0.074720 
1483.259504  	0.074690 
1485.188320  	0.073272 
1487.117136  	0.070881 
1489.045952  	0.068818 
1490.974768  	0.067402 
1492.903584  	0.064719 
1494.832400  	0.060361 
1496.761216  	0.056898 
1498.690032  	0.054354 
1500.618848  	0.052313 
1502.547664  	0.049399 
1504.476480  	0.044982 
1506.405296  	0.041987 
1508.334112  	0.044455 
1510.262928  	0.043940 
1512.191744  	0.042907 
1514.120560  	0.041291 
1516.049376  	0.040024 
1517.978192  	0.040779 
1519.907008  	0.040534 
1521.835824  	0.043381 
1523.764640  	0.046525 
1525.693456  	0.048628 
1527.622272  	0.051569 
1529.551088  	0.052999 
1531.479904  	0.052357 
1533.408720  	0.051940 
1535.337536  	0.051798 
1537.266352  	0.047614 
1539.195168  	0.042856 
1541.123984  	0.042764 
1543.052800  	0.043353 
1544.981616  	0.043089 
1546.910432  	0.042636 
1548.839248  	0.041278 
1550.768064  	0.041556 
1552.696880  	0.040866 
1554.625696  	0.040993 
1556.554512  	0.038980 
1558.483328  	0.038547 
1560.412144  	0.047879 
1562.340960  	0.049949 
1564.269776  	0.051252 
1566.198592  	0.054578 
1568.127408  	0.056373 
1570.056224  	0.062042 
1571.985040  	0.066664 
1573.913856  	0.067320 
1575.842672  	0.068692 
1577.771488  	0.072561 
1579.700304  	0.072554 
1581.629120  	0.072422 
1583.557936  	0.072626 
1585.486752  	0.074122 
1587.415568  	0.076466 
1589.344384  	0.080320 
1591.273200  	0.084674 
1593.202016  	0.089664 
1595.130832  	0.094722 
1597.059648  	0.099911 
1598.988464  	0.103541 
1600.917280  	0.106457 
1602.846096  	0.108087 
1604.774912  	0.109082 
1606.703728  	0.108565 
1608.632544  	0.108114 
1610.561360  	0.107567 
1612.490176  	0.107127 
1614.418992  	0.105380 
1616.347808  	0.106533 
1618.276624  	0.111057 
1620.205440  	0.113667 
1622.134256  	0.116281 
1624.063072  	0.123859 
1625.991888  	0.129820 
1627.920704  	0.136499 
1629.849520  	0.144500 
1631.778336  	0.150437 
1633.707152  	0.153831 
1635.635968  	0.161419 
1637.564784  	0.170770 
1639.493600  	0.174975 
1641.422416  	0.178382 
1643.351232  	0.179957 
1645.280048  	0.179583 
1647.208864  	0.182213 
1649.137680  	0.183749 
1651.066496  	0.180220 
1652.995312  	0.178289 
1654.924128  	0.182968 
1656.852944  	0.181304 
1658.781760  	0.179284 
1660.710576  	0.176630 
1662.639392  	0.175162 
1664.568208  	0.174807 
1666.497024  	0.172399 
1668.425840  	0.169656 
1670.354656  	0.169614 
1672.283472  	0.169070 
1674.212288  	0.167519 
1676.141104  	0.169053 
1678.069920  	0.169122 
1679.998736  	0.168332 
1681.927552  	0.166737 
1683.856368  	0.166433 
1685.785184  	0.171139 
1687.714000  	0.169941 
1689.642816  	0.168573 
1691.571632  	0.166962 
1693.500448  	0.163317 
1695.429264  	0.159125 
1697.358080  	0.155958 
1699.286896  	0.151005 
1701.215712  	0.149109 
1703.144528  	0.144829 
1705.073344  	0.139410 
1707.002160  	0.135008 
1708.930976  	0.130316 
1710.859792  	0.124621 
1712.788608  	0.117947 
1714.717424  	0.110707 
1716.646240  	0.103572 
1718.575056  	0.098406 
1720.503872  	0.092787 
1722.432688  	0.086560 
1724.361504  	0.080206 
1726.290320  	0.074273 
1728.219136  	0.067915 
1730.147952  	0.062013 
1732.076768  	0.055894 
1734.005584  	0.051327 
1735.934400  	0.047614 
1737.863216  	0.042832 
1739.792032  	0.038451 
1741.720848  	0.035467 
1743.649664  	0.032194 
1745.578480  	0.029092 
1747.507296  	0.025898 
1749.436112  	0.024128 
1751.364928  	0.023856 
1753.293744  	0.023353 
1755.222560  	0.021086 
1757.151376  	0.020326 
1759.080192  	0.019249 
1761.009008  	0.018484 
1762.937824  	0.018649 
1764.866640  	0.018081 
1766.795456  	0.016669 
1768.724272  	0.016283 
1770.653088  	0.014350 
1772.581904  	0.014934 
1774.510720  	0.016076 
1776.439536  	0.016062 
1778.368352  	0.015443 
1780.297168  	0.015426 
1782.225984  	0.015440 
1784.154800  	0.015120 
1786.083616  	0.015339 
1788.012432  	0.014872 
1789.941248  	0.013346 
1791.870064  	0.013209 
1793.798880  	0.014223 
1795.727696  	0.014298 
1797.656512  	0.013551 
1799.585328  	0.013011 
1801.514144  	0.013327 
1803.442960  	0.013519 
1805.371776  	0.013099 
1807.300592  	0.012928 
1809.229408  	0.012381 
1811.158224  	0.012571 
1813.087040  	0.012803 
1815.015856  	0.012429 
1816.944672  	0.012129 
1818.873488  	0.012538 
1820.802304  	0.012513 
1822.731120  	0.012141 
1824.659936  	0.011828 
1826.588752  	0.012177 
1828.517568  	0.011345 
1830.446384  	0.012460 
1832.375200  	0.013086 
1834.304016  	0.012626 
1836.232832  	0.012315 
1838.161648  	0.012570 
1840.090464  	0.012367 
1842.019280  	0.011366 
1843.948096  	0.011233 
1845.876912  	0.012415 
1847.805728  	0.012325 
1849.734544  	0.012773 
1851.663360  	0.012668 
1853.592176  	0.012731 
1855.520992  	0.012398 
1857.449808  	0.012639 
1859.378624  	0.012512 
1861.307440  	0.012507 
1863.236256  	0.012178 
1865.165072  	0.011605 
1867.093888  	0.010892 
1869.022704  	0.011931 
1870.951520  	0.012437 
1872.880336  	0.012283 
1874.809152  	0.012103 
1876.737968  	0.012255 
1878.666784  	0.012178 
1880.595600  	0.012327 
1882.524416  	0.012115 
1884.453232  	0.012017 
1886.382048  	0.011966 
1888.310864  	0.011849 
1890.239680  	0.012384 
1892.168496  	0.012606 
1894.097312  	0.011808 
1896.026128  	0.012514 
1897.954944  	0.012672 
1899.883760  	0.012554 
1901.812576  	0.012059 
1903.741392  	0.011919 
1905.670208  	0.011680 
1907.599024  	0.011728 
1909.527840  	0.011502 
1911.456656  	0.011947 
1913.385472  	0.012215 
1915.314288  	0.012309 
1917.243104  	0.011827 
1919.171920  	0.012250 
1921.100736  	0.012216 
1923.029552  	0.012707 
1924.958368  	0.012316 
1926.887184  	0.012434 
1928.816000  	0.012140 
1930.744816  	0.011526 
1932.673632  	0.010961 
1934.602448  	0.011428 
1936.531264  	0.011850 
1938.460080  	0.011748 
1940.388896  	0.011287 
1942.317712  	0.011660 
1944.246528  	0.011734 
1946.175344  	0.012243 
1948.104160  	0.011937 
1950.032976  	0.011535 
1951.961792  	0.011359 
1953.890608  	0.011787 
1955.819424  	0.011303 
1957.748240  	0.011347 
1959.677056  	0.011559 
1961.605872  	0.011375 
1963.534688  	0.010711 
1965.463504  	0.011561 
1967.392320  	0.011474 
1969.321136  	0.011809 
1971.249952  	0.011639 
1973.178768  	0.012422 
1975.107584  	0.011761 
1977.036400  	0.011709 
1978.965216  	0.013763 
1980.894032  	0.014285 
1982.822848  	0.012595 
1984.751664  	0.012898 
1986.680480  	0.012777 
1988.609296  	0.012577 
1990.538112  	0.011903 
1992.466928  	0.011710 
1994.395744  	0.011510 
1996.324560  	0.012264 
1998.253376  	0.011983 
2000.182192  	0.011603 
2002.111008  	0.012027 
2004.039824  	0.012217 
2005.968640  	0.011500 
2007.897456  	0.012530 
2009.826272  	0.012251 
2011.755088  	0.012076 
2013.683904  	0.012948 
2015.612720  	0.013206 
2017.541536  	0.012314 
2019.470352  	0.012498 
2021.399168  	0.012725 
2023.327984  	0.013688 
2025.256800  	0.013050 
2027.185616  	0.012180 
2029.114432  	0.011583 
2031.043248  	0.013103 
2032.972064  	0.013208 
2034.900880  	0.014395 
2036.829696  	0.014855 
2038.758512  	0.013967 
2040.687328  	0.012786 
2042.616144  	0.013258 
2044.544960  	0.013120 
2046.473776  	0.013160 
2048.402592  	0.013256 
2050.331408  	0.014812 
2052.260224  	0.013855 
2054.189040  	0.013474 
2056.117856  	0.013045 
2058.046672  	0.012515 
2059.975488  	0.012010 
2061.904304  	0.012111 
2063.833120  	0.012933 
2065.761936  	0.013417 
2067.690752  	0.013041 
2069.619568  	0.012859 
2071.548384  	0.012068 
2073.477200  	0.012141 
2075.406016  	0.012923 
2077.334832  	0.013397 
2079.263648  	0.012717 
2081.192464  	0.012688 
2083.121280  	0.013029 
2085.050096  	0.013307 
2086.978912  	0.013408 
2088.907728  	0.013149 
2090.836544  	0.012124 
2092.765360  	0.011706 
2094.694176  	0.011974 
2096.622992  	0.012234 
2098.551808  	0.012066 
2100.480624  	0.012095 
2102.409440  	0.011976 
2104.338256  	0.012845 
2106.267072  	0.012970 
2108.195888  	0.013006 
2110.124704  	0.013364 
2112.053520  	0.013778 
2113.982336  	0.013539 
2115.911152  	0.013591 
2117.839968  	0.012955 
2119.768784  	0.012299 
2121.697600  	0.012080 
2123.626416  	0.012001 
2125.555232  	0.011844 
2127.484048  	0.012146 
2129.412864  	0.011711 
2131.341680  	0.010641 
2133.270496  	0.010916 
2135.199312  	0.011776 
2137.128128  	0.012384 
2139.056944  	0.012962 
2140.985760  	0.012317 
2142.914576  	0.012450 
2144.843392  	0.012362 
2146.772208  	0.012273 
2148.701024  	0.012007 
2150.629840  	0.012180 
2152.558656  	0.011573 
2154.487472  	0.010767 
2156.416288  	0.009769 
2158.345104  	0.012832 
2160.273920  	0.016041 
2162.202736  	0.016143 
2164.131552  	0.015353 
2166.060368  	0.016223 
2167.989184  	0.015195 
2169.918000  	0.014033 
2171.846816  	0.013866 
2173.775632  	0.014219 
2175.704448  	0.014768 
2177.633264  	0.015430 
2179.562080  	0.014748 
2181.490896  	0.014374 
2183.419712  	0.014029 
2185.348528  	0.014672 
2187.277344  	0.014905 
2189.206160  	0.014686 
2191.134976  	0.014833 
2193.063792  	0.016112 
2194.992608  	0.016668 
2196.921424  	0.015852 
2198.850240  	0.015717 
2200.779056  	0.015692 
2202.707872  	0.014997 
2204.636688  	0.015011 
2206.565504  	0.015135 
2208.494320  	0.015542 
2210.423136  	0.014336 
2212.351952  	0.014710 
2214.280768  	0.015491 
2216.209584  	0.015140 
2218.138400  	0.014913 
2220.067216  	0.014899 
2221.996032  	0.015015 
2223.924848  	0.014991 
2225.853664  	0.015031 
2227.782480  	0.015307 
2229.711296  	0.015389 
2231.640112  	0.015429 
2233.568928  	0.014919 
2235.497744  	0.014943 
2237.426560  	0.014588 
2239.355376  	0.014677 
2241.284192  	0.014531 
2243.213008  	0.014602 
2245.141824  	0.014653 
2247.070640  	0.014564 
2248.999456  	0.014253 
2250.928272  	0.014213 
2252.857088  	0.013867 
2254.785904  	0.013788 
2256.714720  	0.014509 
2258.643536  	0.015210 
2260.572352  	0.014741 
2262.501168  	0.014497 
2264.429984  	0.014473 
2266.358800  	0.014657 
2268.287616  	0.014719 
2270.216432  	0.014708 
2272.145248  	0.014358 
2274.074064  	0.014421 
2276.002880  	0.014595 
2277.931696  	0.014973 
2279.860512  	0.015261 
2281.789328  	0.015368 
2283.718144  	0.015304 
2285.646960  	0.015622 
2287.575776  	0.015734 
2289.504592  	0.015294 
2291.433408  	0.014749 
2293.362224  	0.014628 
2295.291040  	0.014652 
2297.219856  	0.014865 
2299.148672  	0.014902 
2301.077488  	0.014951 
2303.006304  	0.014969 
2304.935120  	0.014595 
2306.863936  	0.014232 
2308.792752  	0.014060 
2310.721568  	0.014059 
2312.650384  	0.014050 
2314.579200  	0.013769 
2316.508016  	0.013537 
2318.436832  	0.012837 
2320.365648  	0.012513 
2322.294464  	0.012476 
2324.223280  	0.011813 
2326.152096  	0.010116 
2328.080912  	0.009069 
2330.009728  	0.008479 
2331.938544  	0.008145 
2333.867360  	0.007482 
2335.796176  	0.006806 
2337.724992  	0.006463 
2339.653808  	0.006454 
2341.582624  	0.006830 
2343.511440  	0.008373 
2345.440256  	0.010391 
2347.369072  	0.011656 
2349.297888  	0.010254 
2351.226704  	0.007777 
2353.155520  	0.006312 
2355.084336  	0.005414 
2357.013152  	0.004816 
2358.941968  	0.004066 
2360.870784  	0.003804 
2362.799600  	0.004687 
2364.728416  	0.005929 
2366.657232  	0.007043 
2368.586048  	0.007808 
2370.514864  	0.009744 
2372.443680  	0.011514 
2374.372496  	0.012970 
2376.301312  	0.013965 
2378.230128  	0.014913 
2380.158944  	0.015214 
2382.087760  	0.015304 
2384.016576  	0.015610 
2385.945392  	0.015697 
2387.874208  	0.015482 
2389.803024  	0.015133 
2391.731840  	0.014841 
2393.660656  	0.014792 
2395.589472  	0.015082 
2397.518288  	0.015353 
2399.447104  	0.015281 
2401.375920  	0.015318 
2403.304736  	0.015551 
2405.233552  	0.015445 
2407.162368  	0.015488 
2409.091184  	0.015609 
2411.020000  	0.015736 
2412.948816  	0.015941 
2414.877632  	0.015952 
2416.806448  	0.016048 
2418.735264  	0.016203 
2420.664080  	0.016155 
2422.592896  	0.015812 
2424.521712  	0.015846 
2426.450528  	0.016075 
2428.379344  	0.016023 
2430.308160  	0.016140 
2432.236976  	0.016311 
2434.165792  	0.016419 
2436.094608  	0.016825 
2438.023424  	0.016969 
2439.952240  	0.016845 
2441.881056  	0.016758 
2443.809872  	0.016839 
2445.738688  	0.016839 
2447.667504  	0.016950 
2449.596320  	0.017021 
2451.525136  	0.017090 
2453.453952  	0.017333 
2455.382768  	0.017631 
2457.311584  	0.017527 
2459.240400  	0.017414 
2461.169216  	0.017414 
2463.098032  	0.017349 
2465.026848  	0.017335 
2466.955664  	0.017324 
2468.884480  	0.017075 
2470.813296  	0.017104 
2472.742112  	0.017151 
2474.670928  	0.017178 
2476.599744  	0.017272 
2478.528560  	0.017309 
2480.457376  	0.017593 
2482.386192  	0.017651 
2484.315008  	0.017686 
2486.243824  	0.017804 
2488.172640  	0.017697 
2490.101456  	0.017750 
2492.030272  	0.018051 
2493.959088  	0.018010 
2495.887904  	0.017856 
2497.816720  	0.017980 
2499.745536  	0.018109 
2501.674352  	0.018360 
2503.603168  	0.018356 
2505.531984  	0.018429 
2507.460800  	0.018476 
2509.389616  	0.018403 
2511.318432  	0.018255 
2513.247248  	0.018453 
2515.176064  	0.018649 
2517.104880  	0.018813 
2519.033696  	0.018780 
2520.962512  	0.018795 
2522.891328  	0.019021 
2524.820144  	0.019064 
2526.748960  	0.019303 
2528.677776  	0.019596 
2530.606592  	0.019603 
2532.535408  	0.019561 
2534.464224  	0.019583 
2536.393040  	0.019583 
2538.321856  	0.019536 
2540.250672  	0.019713 
2542.179488  	0.019690 
2544.108304  	0.019816 
2546.037120  	0.019741 
2547.965936  	0.019834 
2549.894752  	0.020178 
2551.823568  	0.020232 
2553.752384  	0.020105 
2555.681200  	0.020247 
2557.610016  	0.020345 
2559.538832  	0.020370 
2561.467648  	0.020615 
2563.396464  	0.020933 
2565.325280  	0.021130 
2567.254096  	0.021133 
2569.182912  	0.021042 
2571.111728  	0.020954 
2573.040544  	0.020797 
2574.969360  	0.020804 
2576.898176  	0.021154 
2578.826992  	0.021593 
2580.755808  	0.021606 
2582.684624  	0.021509 
2584.613440  	0.021366 
2586.542256  	0.021514 
2588.471072  	0.021776 
2590.399888  	0.021853 
2592.328704  	0.021943 
2594.257520  	0.022112 
2596.186336  	0.022350 
2598.115152  	0.022397 
2600.043968  	0.022217 
2601.972784  	0.022250 
2603.901600  	0.022483 
2605.830416  	0.022600 
2607.759232  	0.022462 
2609.688048  	0.022581 
2611.616864  	0.022753 
2613.545680  	0.022946 
2615.474496  	0.023109 
2617.403312  	0.023050 
2619.332128  	0.023159 
2621.260944  	0.023379 
2623.189760  	0.023373 
2625.118576  	0.023380 
2627.047392  	0.023526 
2628.976208  	0.023921 
2630.905024  	0.024003 
2632.833840  	0.024035 
2634.762656  	0.024152 
2636.691472  	0.024308 
2638.620288  	0.024324 
2640.549104  	0.024396 
2642.477920  	0.024477 
2644.406736  	0.024555 
2646.335552  	0.024866 
2648.264368  	0.025016 
2650.193184  	0.025115 
2652.122000  	0.025249 
2654.050816  	0.025327 
2655.979632  	0.025293 
2657.908448  	0.025294 
2659.837264  	0.025376 
2661.766080  	0.025334 
2663.694896  	0.025342 
2665.623712  	0.025338 
2667.552528  	0.025344 
2669.481344  	0.025518 
2671.410160  	0.025768 
2673.338976  	0.025903 
2675.267792  	0.025973 
2677.196608  	0.026090 
2679.125424  	0.026294 
2681.054240  	0.026313 
2682.983056  	0.026335 
2684.911872  	0.026426 
2686.840688  	0.026511 
2688.769504  	0.026722 
2690.698320  	0.026860 
2692.627136  	0.026972 
2694.555952  	0.027090 
2696.484768  	0.027064 
2698.413584  	0.027146 
2700.342400  	0.027248 
2702.271216  	0.027436 
2704.200032  	0.027746 
2706.128848  	0.027969 
2708.057664  	0.028059 
2709.986480  	0.028047 
2711.915296  	0.028062 
2713.844112  	0.028131 
2715.772928  	0.028327 
2717.701744  	0.028535 
2719.630560  	0.028624 
2721.559376  	0.028748 
2723.488192  	0.028814 
2725.417008  	0.029023 
2727.345824  	0.029192 
2729.274640  	0.029196 
2731.203456  	0.029333 
2733.132272  	0.029531 
2735.061088  	0.029659 
2736.989904  	0.029775 
2738.918720  	0.029850 
2740.847536  	0.029864 
2742.776352  	0.030063 
2744.705168  	0.030351 
2746.633984  	0.030440 
2748.562800  	0.030515 
2750.491616  	0.030562 
2752.420432  	0.030629 
2754.349248  	0.030717 
2756.278064  	0.030776 
2758.206880  	0.030845 
2760.135696  	0.031090 
2762.064512  	0.031118 
2763.993328  	0.031084 
2765.922144  	0.031137 
2767.850960  	0.031165 
2769.779776  	0.031271 
2771.708592  	0.031409 
2773.637408  	0.031434 
2775.566224  	0.031464 
2777.495040  	0.031527 
2779.423856  	0.031760 
2781.352672  	0.031917 
2783.281488  	0.031967 
2785.210304  	0.031991 
2787.139120  	0.032109 
2789.067936  	0.032262 
2790.996752  	0.032358 
2792.925568  	0.032530 
2794.854384  	0.032722 
2796.783200  	0.032839 
2798.712016  	0.032764 
2800.640832  	0.032774 
2802.569648  	0.033000 
2804.498464  	0.033120 
2806.427280  	0.033228 
2808.356096  	0.033341 
2810.284912  	0.033500 
2812.213728  	0.033482 
2814.142544  	0.033515 
2816.071360  	0.033785 
2818.000176  	0.033862 
2819.928992  	0.033781 
2821.857808  	0.033871 
2823.786624  	0.034000 
2825.715440  	0.034029 
2827.644256  	0.033974 
2829.573072  	0.034075 
2831.501888  	0.034051 
2833.430704  	0.033857 
2835.359520  	0.033785 
2837.288336  	0.033820 
2839.217152  	0.033887 
2841.145968  	0.033811 
2843.074784  	0.033759 
2845.003600  	0.033881 
2846.932416  	0.034082 
2848.861232  	0.034196 
2850.790048  	0.034241 
2852.718864  	0.034354 
2854.647680  	0.034452 
2856.576496  	0.034680 
2858.505312  	0.034892 
2860.434128  	0.034963 
2862.362944  	0.035023 
2864.291760  	0.035256 
2866.220576  	0.035447 
2868.149392  	0.035830 
2870.078208  	0.036329 
2872.007024  	0.036667 
2873.935840  	0.037167 
2875.864656  	0.037645 
2877.793472  	0.038225 
2879.722288  	0.038883 
2881.651104  	0.039374 
2883.579920  	0.039740 
2885.508736  	0.040052 
2887.437552  	0.040357 
2889.366368  	0.040489 
2891.295184  	0.040655 
2893.224000  	0.040928 
2895.152816  	0.041294 
2897.081632  	0.041191 
2899.010448  	0.041118 
2900.939264  	0.041494 
2902.868080  	0.041635 
2904.796896  	0.041592 
2906.725712  	0.041696 
2908.654528  	0.041846 
2910.583344  	0.042093 
2912.512160  	0.042537 
2914.440976  	0.042969 
2916.369792  	0.043326 
2918.298608  	0.043707 
2920.227424  	0.044288 
2922.156240  	0.044879 
2924.085056  	0.045400 
2926.013872  	0.046047 
2927.942688  	0.046839 
2929.871504  	0.047475 
2931.800320  	0.047931 
2933.729136  	0.048342 
2935.657952  	0.048634 
2937.586768  	0.049120 
2939.515584  	0.049399 
2941.444400  	0.049611 
2943.373216  	0.049992 
2945.302032  	0.050203 
2947.230848  	0.050218 
2949.159664  	0.050243 
2951.088480  	0.050306 
2953.017296  	0.050570 
2954.946112  	0.050619 
2956.874928  	0.050382 
2958.803744  	0.050178 
2960.732560  	0.050092 
2962.661376  	0.050093 
2964.590192  	0.050075 
2966.519008  	0.050085 
2968.447824  	0.049973 
2970.376640  	0.049904 
2972.305456  	0.049620 
2974.234272  	0.049268 
2976.163088  	0.049012 
2978.091904  	0.048946 
2980.020720  	0.048909 
2981.949536  	0.048725 
2983.878352  	0.048462 
2985.807168  	0.048358 
2987.735984  	0.048656 
2989.664800  	0.048845 
2991.593616  	0.048646 
2993.522432  	0.048390 
2995.451248  	0.048323 
2997.380064  	0.048396 
2999.308880  	0.048537 
3001.237696  	0.048586 
3003.166512  	0.048534 
3005.095328  	0.048516 
3007.024144  	0.048481 
3008.952960  	0.048471 
3010.881776  	0.048647 
3012.810592  	0.048746 
3014.739408  	0.048775 
3016.668224  	0.048894 
3018.597040  	0.048919 
3020.525856  	0.048804 
3022.454672  	0.048842 
3024.383488  	0.049173 
3026.312304  	0.049449 
3028.241120  	0.049520 
3030.169936  	0.049401 
3032.098752  	0.049672 
3034.027568  	0.049771 
3035.956384  	0.049753 
3037.885200  	0.049867 
3039.814016  	0.050163 
3041.742832  	0.050610 
3043.671648  	0.050833 
3045.600464  	0.050892 
3047.529280  	0.050996 
3049.458096  	0.051278 
3051.386912  	0.051440 
3053.315728  	0.051648 
3055.244544  	0.052011 
3057.173360  	0.052591 
3059.102176  	0.052914 
3061.030992  	0.053119 
3062.959808  	0.053418 
3064.888624  	0.053984 
3066.817440  	0.054505 
3068.746256  	0.054692 
3070.675072  	0.054845 
3072.603888  	0.055393 
3074.532704  	0.056029 
3076.461520  	0.056321 
3078.390336  	0.056563 
3080.319152  	0.057027 
3082.247968  	0.057605 
3084.176784  	0.058062 
3086.105600  	0.058241 
3088.034416  	0.058558 
3089.963232  	0.058951 
3091.892048  	0.059308 
3093.820864  	0.059675 
3095.749680  	0.060091 
3097.678496  	0.060271 
3099.607312  	0.060613 
3101.536128  	0.061144 
3103.464944  	0.061670 
3105.393760  	0.062074 
3107.322576  	0.062346 
3109.251392  	0.062629 
3111.180208  	0.062947 
3113.109024  	0.063120 
3115.037840  	0.063194 
3116.966656  	0.063499 
3118.895472  	0.063837 
3120.824288  	0.064019 
3122.753104  	0.064409 
3124.681920  	0.064880 
3126.610736  	0.065046 
3128.539552  	0.065211 
3130.468368  	0.065210 
3132.397184  	0.065455 
3134.326000  	0.065776 
3136.254816  	0.066016 
3138.183632  	0.066465 
3140.112448  	0.066665 
3142.041264  	0.066791 
3143.970080  	0.067051 
3145.898896  	0.067314 
3147.827712  	0.067567 
3149.756528  	0.067957 
3151.685344  	0.068464 
3153.614160  	0.068829 
3155.542976  	0.068912 
3157.471792  	0.069181 
3159.400608  	0.069838 
3161.329424  	0.070162 
3163.258240  	0.070317 
3165.187056  	0.070591 
3167.115872  	0.070839 
3169.044688  	0.071037 
3170.973504  	0.071152 
3172.902320  	0.071274 
3174.831136  	0.071587 
3176.759952  	0.071827 
3178.688768  	0.072093 
3180.617584  	0.072222 
3182.546400  	0.072172 
3184.475216  	0.072473 
3186.404032  	0.072650 
3188.332848  	0.072572 
3190.261664  	0.072768 
3192.190480  	0.072838 
3194.119296  	0.072663 
3196.048112  	0.072778 
3197.976928  	0.073081 
3199.905744  	0.072969 
3201.834560  	0.072850 
3203.763376  	0.073032 
3205.692192  	0.073068 
3207.621008  	0.072898 
3209.549824  	0.072727 
3211.478640  	0.072530 
3213.407456  	0.072265 
3215.336272  	0.072332 
3217.265088  	0.072288 
3219.193904  	0.072123 
3221.122720  	0.071763 
3223.051536  	0.071406 
3224.980352  	0.071189 
3226.909168  	0.070904 
3228.837984  	0.070661 
3230.766800  	0.070680 
3232.695616  	0.070675 
3234.624432  	0.070649 
3236.553248  	0.070653 
3238.482064  	0.070450 
3240.410880  	0.070248 
3242.339696  	0.070079 
3244.268512  	0.070088 
3246.197328  	0.070139 
3248.126144  	0.069989 
3250.054960  	0.069897 
3251.983776  	0.069727 
3253.912592  	0.069721 
3255.841408  	0.070071 
3257.770224  	0.070385 
3259.699040  	0.070658 
3261.627856  	0.070748 
3263.556672  	0.070735 
3265.485488  	0.070677 
3267.414304  	0.070723 
3269.343120  	0.070997 
3271.271936  	0.071140 
3273.200752  	0.071247 
3275.129568  	0.071390 
3277.058384  	0.071368 
3278.987200  	0.071486 
3280.916016  	0.071779 
3282.844832  	0.071972 
3284.773648  	0.072019 
3286.702464  	0.072079 
3288.631280  	0.072111 
3290.560096  	0.072259 
3292.488912  	0.072620 
3294.417728  	0.072673 
3296.346544  	0.072774 
3298.275360  	0.073115 
3300.204176  	0.073546 
3302.132992  	0.073736 
3304.061808  	0.073885 
3305.990624  	0.074118 
3307.919440  	0.074356 
3309.848256  	0.074492 
3311.777072  	0.074599 
3313.705888  	0.074916 
3315.634704  	0.075272 
3317.563520  	0.075550 
3319.492336  	0.075593 
3321.421152  	0.075637 
3323.349968  	0.075914 
3325.278784  	0.076296 
3327.207600  	0.076395 
3329.136416  	0.076325 
3331.065232  	0.076276 
3332.994048  	0.076330 
3334.922864  	0.076303 
3336.851680  	0.076125 
3338.780496  	0.076166 
3340.709312  	0.076096 
3342.638128  	0.075950 
3344.566944  	0.075894 
3346.495760  	0.075667 
3348.424576  	0.075406 
3350.353392  	0.075386 
3352.282208  	0.075142 
3354.211024  	0.074882 
3356.139840  	0.074903 
3358.068656  	0.074695 
3359.997472  	0.074261 
3361.926288  	0.073888 
3363.855104  	0.073635 
3365.783920  	0.073466 
3367.712736  	0.073159 
3369.641552  	0.072758 
3371.570368  	0.072507 
3373.499184  	0.072315 
3375.428000  	0.072009 
3377.356816  	0.071638 
3379.285632  	0.071333 
3381.214448  	0.071174 
3383.143264  	0.070812 
3385.072080  	0.070633 
3387.000896  	0.070356 
3388.929712  	0.069944 
3390.858528  	0.069449 
3392.787344  	0.069174 
3394.716160  	0.068798 
3396.644976  	0.068523 
3398.573792  	0.068260 
3400.502608  	0.067807 
3402.431424  	0.067434 
3404.360240  	0.067104 
3406.289056  	0.066794 
3408.217872  	0.066449 
3410.146688  	0.065945 
3412.075504  	0.065822 
3414.004320  	0.065792 
3415.933136  	0.065337 
3417.861952  	0.064599 
3419.790768  	0.064329 
3421.719584  	0.064234 
3423.648400  	0.063718 
3425.577216  	0.063395 
3427.506032  	0.063159 
3429.434848  	0.062618 
3431.363664  	0.062353 
3433.292480  	0.062198 
3435.221296  	0.061955 
3437.150112  	0.061525 
3439.078928  	0.061240 
3441.007744  	0.060712 
3442.936560  	0.060339 
3444.865376  	0.059742 
3446.794192  	0.059160 
3448.723008  	0.059110 
3450.651824  	0.058562 
3452.580640  	0.057932 
3454.509456  	0.057491 
3456.438272  	0.057246 
3458.367088  	0.057020 
3460.295904  	0.056644 
3462.224720  	0.056060 
3464.153536  	0.055445 
3466.082352  	0.055047 
3468.011168  	0.054643 
3469.939984  	0.054073 
3471.868800  	0.053551 
3473.797616  	0.053140 
3475.726432  	0.052747 
3477.655248  	0.052173 
3479.584064  	0.051561 
3481.512880  	0.051165 
3483.441696  	0.050771 
3485.370512  	0.049905 
3487.299328  	0.049437 
3489.228144  	0.049134 
3491.156960  	0.048476 
3493.085776  	0.047965 
3495.014592  	0.047455 
3496.943408  	0.047096 
3498.872224  	0.046505 
3500.801040  	0.045825 
3502.729856  	0.045607 
3504.658672  	0.045464 
3506.587488  	0.044574 
3508.516304  	0.043981 
3510.445120  	0.044071 
3512.373936  	0.043838 
3514.302752  	0.043399 
3516.231568  	0.042877 
3518.160384  	0.042380 
3520.089200  	0.041978 
3522.018016  	0.041423 
3523.946832  	0.041253 
3525.875648  	0.040852 
3527.804464  	0.040423 
3529.733280  	0.040312 
3531.662096  	0.039934 
3533.590912  	0.039175 
3535.519728  	0.038829 
3537.448544  	0.038986 
3539.377360  	0.038522 
3541.306176  	0.037736 
3543.234992  	0.036957 
3545.163808  	0.036883 
3547.092624  	0.037249 
3549.021440  	0.036434 
3550.950256  	0.035522 
3552.879072  	0.035934 
3554.807888  	0.035956 
3556.736704  	0.035195 
3558.665520  	0.034654 
3560.594336  	0.034325 
3562.523152  	0.033284 
3564.451968  	0.031928 
3566.380784  	0.032087 
3568.309600  	0.033945 
3570.238416  	0.033457 
3572.167232  	0.032057 
3574.096048  	0.031302 
3576.024864  	0.030899 
3577.953680  	0.030488 
3579.882496  	0.030171 
3581.811312  	0.029786 
3583.740128  	0.028413 
3585.668944  	0.026867 
3587.597760  	0.028078 
3589.526576  	0.029223 
3591.455392  	0.027206 
3593.384208  	0.026073 
3595.313024  	0.026094 
3597.241840  	0.025665 
3599.170656  	0.024797 
3601.099472  	0.024699 
3603.028288  	0.024542 
3604.957104  	0.023157 
3606.885920  	0.021939 
3608.814736  	0.022873 
3610.743552  	0.022334 
3612.672368  	0.021048 
3614.601184  	0.021044 
3616.530000  	0.019361 
3618.458816  	0.019271 
3620.387632  	0.021216 
3622.316448  	0.020579 
3624.245264  	0.018784 
3626.174080  	0.016045 
3628.102896  	0.015376 
3630.031712  	0.019941 
3631.960528  	0.018481 
3633.889344  	0.017111 
3635.818160  	0.016700 
3637.746976  	0.016047 
3639.675792  	0.015924 
3641.604608  	0.015476 
3643.533424  	0.014200 
3645.462240  	0.011334 
3647.391056  	0.009957 
3649.319872  	0.012024 
3651.248688  	0.015660 
3653.177504  	0.014204 
3655.106320  	0.011700 
3657.035136  	0.013335 
3658.963952  	0.013437 
3660.892768  	0.012546 
3662.821584  	0.011948 
3664.750400  	0.011089 
3666.679216  	0.009113 
3668.608032  	0.007167 
3670.536848  	0.009633 
3672.465664  	0.008951 
3674.394480  	0.006026 
3676.323296  	0.011242 
3678.252112  	0.011367 
3680.180928  	0.010649 
3682.109744  	0.010308 
3684.038560  	0.009491 
3685.967376  	0.007268 
3687.896192  	0.006241 
3689.825008  	0.008592 
3691.753824  	0.010228 
3693.682640  	0.009938 
3695.611456  	0.008777 
3697.540272  	0.008502 
3699.469088  	0.007493 
3701.397904  	0.008131 
3703.326720  	0.009363 
3705.255536  	0.008343 
3707.184352  	0.006340 
3709.113168  	0.004986 
3711.041984  	0.006329 
3712.970800  	0.009571 
3714.899616  	0.009534 
3716.828432  	0.008093 
3718.757248  	0.007249 
3720.686064  	0.006577 
3722.614880  	0.007147 
3724.543696  	0.007499 
3726.472512  	0.008243 
3728.401328  	0.008032 
3730.330144  	0.005326 
3732.258960  	0.004491 
3734.187776  	0.004983 
3736.116592  	0.008377 
3738.045408  	0.009097 
3739.974224  	0.006999 
3741.903040  	0.004175 
3743.831856  	0.004871 
3745.760672  	0.009874 
3747.689488  	0.005518 
3749.618304  	0.004322 
3751.547120  	0.007703 
3753.475936  	0.010427 
3755.404752  	0.008445 
3757.333568  	0.007151 
3759.262384  	0.007882 
3761.191200  	0.009553 
3763.120016  	0.008069 
3765.048832  	0.007569 
3766.977648  	0.007889 
3768.906464  	0.007416 
3770.835280  	0.009319 
3772.764096  	0.009562 
3774.692912  	0.008768 
3776.621728  	0.007602 
3778.550544  	0.007204 
3780.479360  	0.008958 
3782.408176  	0.008493 
3784.336992  	0.008200 
3786.265808  	0.008914 
3788.194624  	0.008965 
3790.123440  	0.008748 
3792.052256  	0.008495 
3793.981072  	0.007220 
3795.909888  	0.006972 
3797.838704  	0.007369 
3799.767520  	0.005098 
3801.696336  	0.007595 
3803.625152  	0.008915 
3805.553968  	0.006473 
3807.482784  	0.009083 
3809.411600  	0.009820 
3811.340416  	0.008604 
3813.269232  	0.006512 
3815.198048  	0.005739 
3817.126864  	0.008268 
3819.055680  	0.005537 
3820.984496  	0.006815 
3822.913312  	0.010308 
3824.842128  	0.008306 
3826.770944  	0.008349 
3828.699760  	0.008148 
3830.628576  	0.006934 
3832.557392  	0.007140 
3834.486208  	0.006318 
3836.415024  	0.005498 
3838.343840  	0.007272 
3840.272656  	0.008419 
3842.201472  	0.008227 
3844.130288  	0.008791 
3846.059104  	0.008957 
3847.987920  	0.007581 
3849.916736  	0.004994 
3851.845552  	0.002178 
3853.774368  	0.008567 
3855.703184  	0.011864 
3857.632000  	0.009395 
3859.560816  	0.007604 
3861.489632  	0.006766 
3863.418448  	0.007045 
3865.347264  	0.008544 
3867.276080  	0.006978 
3869.204896  	0.006288 
3871.133712  	0.009524 
3873.062528  	0.008086 
3874.991344  	0.009398 
3876.920160  	0.008664 
3878.848976  	0.006981 
3880.777792  	0.008682 
3882.706608  	0.008459 
3884.635424  	0.007268 
3886.564240  	0.010202 
3888.493056  	0.008733 
3890.421872  	0.007519 
3892.350688  	0.009567 
3894.279504  	0.009592 
3896.208320  	0.007874 
3898.137136  	0.006708 
3900.065952  	0.007280 
3901.994768  	0.007852 
3903.923584  	0.009305 
3905.852400  	0.010828 
3907.781216  	0.010093 
3909.710032  	0.009308 
3911.638848  	0.009083 
3913.567664  	0.008719 
3915.496480  	0.008207 
3917.425296  	0.009218 
3919.354112  	0.009647 
3921.282928  	0.009440 
3923.211744  	0.008808 
3925.140560  	0.009422 
3927.069376  	0.009295 
3928.998192  	0.008536 
3930.927008  	0.008805 
3932.855824  	0.009963 
3934.784640  	0.009878 
3936.713456  	0.009344 
3938.642272  	0.009352 
3940.571088  	0.008776 
3942.499904  	0.009163 
3944.428720  	0.009738 
3946.357536  	0.008975 
3948.286352  	0.009141 
3950.215168  	0.009726 
3952.143984  	0.009721 
3954.072800  	0.009420 
3956.001616  	0.009405 
3957.930432  	0.009570 
3959.859248  	0.009641 
3961.788064  	0.009544 
3963.716880  	0.009573 
3965.645696  	0.009598 
3967.574512  	0.009703 
3969.503328  	0.009620 
3971.432144  	0.009313 
3973.360960  	0.009248 
3975.289776  	0.009535 
3977.218592  	0.009710 
3979.147408  	0.009687 
3981.076224  	0.009613 
3983.005040  	0.009596 
3984.933856  	0.009602 
3986.862672  	0.009675 
3988.791488  	0.009572 
3990.720304  	0.009556 
3992.649120  	0.009665 
3994.577936  	0.009689 
3996.506752  	0.009715 
3998.435568  	0.009837 
4000.364384  	0.009736 