##TITLE=No Description
##DATA TYPE=INFRARED SPECTRUM
##XUNITS=1/CM
##YUNITS=Abs
399.264912  	0.592157 
401.193728  	0.597273 
403.122544  	0.599582 
405.051360  	0.587224 
406.980176  	0.576993 
408.908992  	0.564910 
410.837808  	0.574237 
412.766624  	0.576589 
414.695440  	0.571193 
416.624256  	0.562738 
418.553072  	0.559746 
420.481888  	0.555964 
422.410704  	0.563964 
424.339520  	0.565039 
426.268336  	0.567923 
428.197152  	0.548739 
430.125968  	0.540927 
432.054784  	0.540257 
433.983600  	0.539952 
435.912416  	0.531435 
437.841232  	0.535127 
439.770048  	0.535868 
441.698864  	0.535312 
443.627680  	0.528280 
445.556496  	0.526614 
447.485312  	0.526622 
449.414128  	0.530168 
451.342944  	0.522469 
453.271760  	0.514784 
455.200576  	0.514301 
457.129392  	0.518840 
459.058208  	0.517969 
460.987024  	0.521698 
462.915840  	0.519125 
464.844656  	0.521693 
466.773472  	0.521088 
468.702288  	0.521672 
470.631104  	0.519975 
472.559920  	0.516427 
474.488736  	0.509647 
476.417552  	0.514757 
478.346368  	0.516595 
480.275184  	0.514164 
482.204000  	0.514149 
484.132816  	0.513693 
486.061632  	0.505938 
487.990448  	0.508400 
489.919264  	0.506650 
491.848080  	0.505039 
493.776896  	0.503206 
495.705712  	0.505544 
497.634528  	0.505502 
499.563344  	0.506398 
501.492160  	0.501334 
503.420976  	0.502112 
505.349792  	0.502367 
507.278608  	0.503162 
509.207424  	0.501934 
511.136240  	0.502860 
513.065056  	0.501392 
514.993872  	0.504193 
516.922688  	0.503726 
518.851504  	0.505307 
520.780320  	0.503858 
522.709136  	0.503619 
524.637952  	0.500297 
526.566768  	0.500784 
528.495584  	0.500911 
530.424400  	0.497631 
532.353216  	0.491520 
534.282032  	0.487613 
536.210848  	0.483610 
538.139664  	0.480338 
540.068480  	0.475578 
541.997296  	0.471510 
543.926112  	0.466934 
545.854928  	0.464759 
547.783744  	0.460516 
549.712560  	0.457101 
551.641376  	0.452644 
553.570192  	0.448745 
555.499008  	0.445042 
557.427824  	0.442485 
559.356640  	0.439174 
561.285456  	0.437698 
563.214272  	0.433599 
565.143088  	0.429809 
567.071904  	0.425076 
569.000720  	0.421973 
570.929536  	0.419134 
572.858352  	0.416165 
574.787168  	0.412743 
576.715984  	0.410282 
578.644800  	0.406023 
580.573616  	0.402578 
582.502432  	0.399234 
584.431248  	0.396552 
586.360064  	0.393565 
588.288880  	0.391342 
590.217696  	0.389030 
592.146512  	0.387803 
594.075328  	0.385450 
596.004144  	0.382935 
597.932960  	0.380987 
599.861776  	0.379628 
601.790592  	0.378229 
603.719408  	0.377307 
605.648224  	0.375611 
607.577040  	0.375560 
609.505856  	0.374607 
611.434672  	0.373555 
613.363488  	0.371791 
615.292304  	0.369932 
617.221120  	0.367797 
619.149936  	0.366337 
621.078752  	0.363596 
623.007568  	0.361564 
624.936384  	0.359681 
626.865200  	0.358281 
628.794016  	0.356254 
630.722832  	0.355122 
632.651648  	0.354213 
634.580464  	0.353310 
636.509280  	0.353472 
638.438096  	0.353372 
640.366912  	0.351969 
642.295728  	0.350146 
644.224544  	0.348002 
646.153360  	0.345439 
648.082176  	0.341498 
650.010992  	0.338435 
651.939808  	0.335159 
653.868624  	0.332333 
655.797440  	0.328347 
657.726256  	0.324721 
659.655072  	0.320704 
661.583888  	0.317074 
663.512704  	0.313689 
665.441520  	0.310495 
667.370336  	0.306336 
669.299152  	0.303032 
671.227968  	0.301044 
673.156784  	0.298399 
675.085600  	0.295656 
677.014416  	0.293957 
678.943232  	0.292405 
680.872048  	0.290594 
682.800864  	0.288350 
684.729680  	0.286966 
686.658496  	0.285493 
688.587312  	0.283511 
690.516128  	0.281692 
692.444944  	0.280220 
694.373760  	0.278314 
696.302576  	0.276879 
698.231392  	0.274598 
700.160208  	0.271797 
702.089024  	0.269133 
704.017840  	0.267763 
705.946656  	0.264940 
707.875472  	0.262096 
709.804288  	0.260250 
711.733104  	0.259081 
713.661920  	0.257450 
715.590736  	0.256282 
717.519552  	0.255861 
719.448368  	0.256325 
721.377184  	0.256818 
723.306000  	0.257033 
725.234816  	0.256815 
727.163632  	0.255524 
729.092448  	0.253021 
731.021264  	0.250591 
732.950080  	0.247821 
734.878896  	0.245234 
736.807712  	0.242492 
738.736528  	0.240425 
740.665344  	0.238895 
742.594160  	0.237764 
744.522976  	0.236209 
746.451792  	0.234841 
748.380608  	0.233897 
750.309424  	0.233033 
752.238240  	0.232197 
754.167056  	0.232257 
756.095872  	0.231575 
758.024688  	0.230022 
759.953504  	0.229206 
761.882320  	0.229217 
763.811136  	0.229136 
765.739952  	0.228301 
767.668768  	0.226961 
769.597584  	0.225687 
771.526400  	0.225452 
773.455216  	0.226866 
775.384032  	0.229164 
777.312848  	0.232328 
779.241664  	0.235378 
781.170480  	0.236043 
783.099296  	0.232972 
785.028112  	0.228286 
786.956928  	0.222787 
788.885744  	0.218254 
790.814560  	0.214812 
792.743376  	0.212334 
794.672192  	0.210693 
796.601008  	0.209784 
798.529824  	0.207900 
800.458640  	0.204763 
802.387456  	0.201717 
804.316272  	0.200129 
806.245088  	0.199245 
808.173904  	0.198498 
810.102720  	0.198259 
812.031536  	0.198281 
813.960352  	0.198092 
815.889168  	0.197567 
817.817984  	0.197245 
819.746800  	0.196962 
821.675616  	0.196427 
823.604432  	0.196040 
825.533248  	0.195331 
827.462064  	0.194051 
829.390880  	0.192625 
831.319696  	0.191524 
833.248512  	0.189912 
835.177328  	0.188115 
837.106144  	0.185744 
839.034960  	0.183301 
840.963776  	0.180565 
842.892592  	0.177872 
844.821408  	0.175149 
846.750224  	0.172565 
848.679040  	0.170553 
850.607856  	0.168797 
852.536672  	0.167440 
854.465488  	0.166090 
856.394304  	0.164892 
858.323120  	0.163696 
860.251936  	0.162415 
862.180752  	0.160835 
864.109568  	0.159310 
866.038384  	0.158034 
867.967200  	0.156677 
869.896016  	0.155575 
871.824832  	0.154372 
873.753648  	0.153543 
875.682464  	0.153480 
877.611280  	0.154048 
879.540096  	0.154684 
881.468912  	0.155080 
883.397728  	0.155294 
885.326544  	0.155234 
887.255360  	0.154871 
889.184176  	0.154356 
891.112992  	0.153770 
893.041808  	0.152131 
894.970624  	0.149752 
896.899440  	0.147052 
898.828256  	0.143778 
900.757072  	0.140411 
902.685888  	0.137427 
904.614704  	0.135547 
906.543520  	0.134635 
908.472336  	0.134977 
910.401152  	0.136408 
912.329968  	0.138634 
914.258784  	0.140838 
916.187600  	0.142810 
918.116416  	0.144168 
920.045232  	0.144553 
921.974048  	0.143995 
923.902864  	0.143202 
925.831680  	0.142047 
927.760496  	0.140694 
929.689312  	0.139565 
931.618128  	0.139337 
933.546944  	0.139505 
935.475760  	0.139553 
937.404576  	0.139515 
939.333392  	0.139848 
941.262208  	0.140843 
943.191024  	0.142583 
945.119840  	0.145481 
947.048656  	0.149433 
948.977472  	0.154564 
950.906288  	0.160411 
952.835104  	0.166755 
954.763920  	0.173194 
956.692736  	0.179055 
958.621552  	0.184208 
960.550368  	0.187546 
962.479184  	0.188856 
964.408000  	0.187471 
966.336816  	0.183998 
968.265632  	0.178151 
970.194448  	0.170881 
972.123264  	0.162378 
974.052080  	0.153355 
975.980896  	0.144560 
977.909712  	0.136277 
979.838528  	0.129354 
981.767344  	0.123724 
983.696160  	0.119757 
985.624976  	0.117757 
987.553792  	0.117917 
989.482608  	0.119776 
991.411424  	0.123373 
993.340240  	0.128551 
995.269056  	0.134855 
997.197872  	0.141637 
999.126688  	0.148294 
1001.055504  	0.155285 
1002.984320  	0.162126 
1004.913136  	0.168688 
1006.841952  	0.174385 
1008.770768  	0.179493 
1010.699584  	0.183558 
1012.628400  	0.186323 
1014.557216  	0.188158 
1016.486032  	0.189458 
1018.414848  	0.190174 
1020.343664  	0.190828 
1022.272480  	0.191149 
1024.201296  	0.191573 
1026.130112  	0.193042 
1028.058928  	0.194402 
1029.987744  	0.194391 
1031.916560  	0.196098 
1033.845376  	0.199306 
1035.774192  	0.203868 
1037.703008  	0.209022 
1039.631824  	0.214745 
1041.560640  	0.221690 
1043.489456  	0.230803 
1045.418272  	0.241866 
1047.347088  	0.254848 
1049.275904  	0.267822 
1051.204720  	0.280848 
1053.133536  	0.291818 
1055.062352  	0.300947 
1056.991168  	0.307286 
1058.919984  	0.310188 
1060.848800  	0.309609 
1062.777616  	0.309134 
1064.706432  	0.307966 
1066.635248  	0.305370 
1068.564064  	0.299291 
1070.492880  	0.293546 
1072.421696  	0.288619 
1074.350512  	0.283937 
1076.279328  	0.279342 
1078.208144  	0.275794 
1080.136960  	0.272262 
1082.065776  	0.268531 
1083.994592  	0.264531 
1085.923408  	0.260769 
1087.852224  	0.256117 
1089.781040  	0.251095 
1091.709856  	0.244288 
1093.638672  	0.237051 
1095.567488  	0.228755 
1097.496304  	0.220285 
1099.425120  	0.210714 
1101.353936  	0.201034 
1103.282752  	0.191271 
1105.211568  	0.181343 
1107.140384  	0.171202 
1109.069200  	0.161515 
1110.998016  	0.152301 
1112.926832  	0.143544 
1114.855648  	0.134981 
1116.784464  	0.126933 
1118.713280  	0.119818 
1120.642096  	0.113413 
1122.570912  	0.107053 
1124.499728  	0.101038 
1126.428544  	0.095543 
1128.357360  	0.090387 
1130.286176  	0.085674 
1132.214992  	0.081926 
1134.143808  	0.078510 
1136.072624  	0.075448 
1138.001440  	0.072304 
1139.930256  	0.069321 
1141.859072  	0.066660 
1143.787888  	0.064067 
1145.716704  	0.061991 
1147.645520  	0.060448 
1149.574336  	0.059348 
1151.503152  	0.058305 
1153.431968  	0.057784 
1155.360784  	0.057692 
1157.289600  	0.058143 
1159.218416  	0.058884 
1161.147232  	0.059957 
1163.076048  	0.061077 
1165.004864  	0.062685 
1166.933680  	0.064358 
1168.862496  	0.066033 
1170.791312  	0.068247 
1172.720128  	0.070504 
1174.648944  	0.072516 
1176.577760  	0.074830 
1178.506576  	0.077483 
1180.435392  	0.079909 
1182.364208  	0.082200 
1184.293024  	0.084666 
1186.221840  	0.087293 
1188.150656  	0.090348 
1190.079472  	0.093946 
1192.008288  	0.097935 
1193.937104  	0.102520 
1195.865920  	0.107861 
1197.794736  	0.113462 
1199.723552  	0.119539 
1201.652368  	0.126051 
1203.581184  	0.132794 
1205.510000  	0.139570 
1207.438816  	0.146228 
1209.367632  	0.152588 
1211.296448  	0.158682 
1213.225264  	0.164669 
1215.154080  	0.169674 
1217.082896  	0.173817 
1219.011712  	0.177166 
1220.940528  	0.180490 
1222.869344  	0.182965 
1224.798160  	0.184873 
1226.726976  	0.186091 
1228.655792  	0.187008 
1230.584608  	0.187056 
1232.513424  	0.186277 
1234.442240  	0.184101 
1236.371056  	0.181183 
1238.299872  	0.177551 
1240.228688  	0.174098 
1242.157504  	0.169433 
1244.086320  	0.163160 
1246.015136  	0.156749 
1247.943952  	0.150870 
1249.872768  	0.144827 
1251.801584  	0.138427 
1253.730400  	0.131890 
1255.659216  	0.125712 
1257.588032  	0.119777 
1259.516848  	0.114071 
1261.445664  	0.108496 
1263.374480  	0.103496 
1265.303296  	0.098950 
1267.232112  	0.095148 
1269.160928  	0.092118 
1271.089744  	0.089942 
1273.018560  	0.088737 
1274.947376  	0.088193 
1276.876192  	0.087790 
1278.805008  	0.086931 
1280.733824  	0.085152 
1282.662640  	0.082170 
1284.591456  	0.078608 
1286.520272  	0.075102 
1288.449088  	0.072202 
1290.377904  	0.069863 
1292.306720  	0.068006 
1294.235536  	0.065875 
1296.164352  	0.062878 
1298.093168  	0.059553 
1300.021984  	0.056297 
1301.950800  	0.053217 
1303.879616  	0.050614 
1305.808432  	0.048563 
1307.737248  	0.046882 
1309.666064  	0.045394 
1311.594880  	0.044431 
1313.523696  	0.043918 
1315.452512  	0.043701 
1317.381328  	0.043948 
1319.310144  	0.044663 
1321.238960  	0.045471 
1323.167776  	0.046315 
1325.096592  	0.046915 
1327.025408  	0.047104 
1328.954224  	0.046729 
1330.883040  	0.046105 
1332.811856  	0.045234 
1334.740672  	0.044275 
1336.669488  	0.043153 
1338.598304  	0.042449 
1340.527120  	0.042331 
1342.455936  	0.042150 
1344.384752  	0.042094 
1346.313568  	0.042623 
1348.242384  	0.043719 
1350.171200  	0.045264 
1352.100016  	0.047085 
1354.028832  	0.048957 
1355.957648  	0.051064 
1357.886464  	0.053060 
1359.815280  	0.054459 
1361.744096  	0.055986 
1363.672912  	0.058491 
1365.601728  	0.059913 
1367.530544  	0.060409 
1369.459360  	0.061083 
1371.388176  	0.060734 
1373.316992  	0.059768 
1375.245808  	0.059297 
1377.174624  	0.058184 
1379.103440  	0.056724 
1381.032256  	0.055455 
1382.961072  	0.054293 
1384.889888  	0.052754 
1386.818704  	0.051413 
1388.747520  	0.050683 
1390.676336  	0.049815 
1392.605152  	0.049378 
1394.533968  	0.049158 
1396.462784  	0.048149 
1398.391600  	0.047777 
1400.320416  	0.049528 
1402.249232  	0.050381 
1404.178048  	0.051453 
1406.106864  	0.053378 
1408.035680  	0.054951 
1409.964496  	0.056127 
1411.893312  	0.057603 
1413.822128  	0.058563 
1415.750944  	0.058662 
1417.679760  	0.057804 
1419.608576  	0.058448 
1421.537392  	0.058254 
1423.466208  	0.056775 
1425.395024  	0.055761 
1427.323840  	0.053652 
1429.252656  	0.051607 
1431.181472  	0.050637 
1433.110288  	0.049950 
1435.039104  	0.048790 
1436.967920  	0.050222 
1438.896736  	0.051829 
1440.825552  	0.051874 
1442.754368  	0.052199 
1444.683184  	0.051997 
1446.612000  	0.051547 
1448.540816  	0.052393 
1450.469632  	0.052918 
1452.398448  	0.052499 
1454.327264  	0.051022 
1456.256080  	0.049260 
1458.184896  	0.051970 
1460.113712  	0.053191 
1462.042528  	0.052828 
1463.971344  	0.052493 
1465.900160  	0.055217 
1467.828976  	0.057200 
1469.757792  	0.058043 
1471.686608  	0.059650 
1473.615424  	0.065653 
1475.544240  	0.069528 
1477.473056  	0.072672 
1479.401872  	0.073636 
1481.330688  	0.074006 
1483.259504  	0.074047 
1485.188320  	0.072581 
1487.117136  	0.070056 
1489.045952  	0.068002 
1490.974768  	0.066598 
1492.903584  	0.063837 
1494.832400  	0.059370 
1496.761216  	0.055932 
1498.690032  	0.053547 
1500.618848  	0.051493 
1502.547664  	0.048465 
1504.476480  	0.043811 
1506.405296  	0.040738 
1508.334112  	0.043519 
1510.262928  	0.042977 
1512.191744  	0.041856 
1514.120560  	0.040190 
1516.049376  	0.038979 
1517.978192  	0.039739 
1519.907008  	0.039414 
1521.835824  	0.042355 
1523.764640  	0.045554 
1525.693456  	0.047612 
1527.622272  	0.050488 
1529.551088  	0.051751 
1531.479904  	0.050977 
1533.408720  	0.050586 
1535.337536  	0.050742 
1537.266352  	0.046565 
1539.195168  	0.041664 
1541.123984  	0.041524 
1543.052800  	0.042266 
1544.981616  	0.042119 
1546.910432  	0.041520 
1548.839248  	0.039946 
1550.768064  	0.040417 
1552.696880  	0.039844 
1554.625696  	0.039859 
1556.554512  	0.037806 
1558.483328  	0.036926 
1560.412144  	0.046522 
1562.340960  	0.048733 
1564.269776  	0.049968 
1566.198592  	0.053353 
1568.127408  	0.055207 
1570.056224  	0.060886 
1571.985040  	0.065436 
1573.913856  	0.065964 
1575.842672  	0.067379 
1577.771488  	0.071549 
1579.700304  	0.071405 
1581.629120  	0.071151 
1583.557936  	0.071391 
1585.486752  	0.072881 
1587.415568  	0.075027 
1589.344384  	0.078732 
1591.273200  	0.083128 
1593.202016  	0.088335 
1595.130832  	0.093315 
1597.059648  	0.098346 
1598.988464  	0.102021 
1600.917280  	0.104964 
1602.846096  	0.106688 
1604.774912  	0.107674 
1606.703728  	0.107102 
1608.632544  	0.106755 
1610.561360  	0.106141 
1612.490176  	0.105667 
1614.418992  	0.103863 
1616.347808  	0.105000 
1618.276624  	0.109710 
1620.205440  	0.112296 
1622.134256  	0.114813 
1624.063072  	0.122274 
1625.991888  	0.128254 
1627.920704  	0.135069 
1629.849520  	0.143002 
1631.778336  	0.148749 
1633.707152  	0.151924 
1635.635968  	0.159235 
1637.564784  	0.168784 
1639.493600  	0.173072 
1641.422416  	0.176493 
1643.351232  	0.178052 
1645.280048  	0.177510 
1647.208864  	0.180140 
1649.137680  	0.181615 
1651.066496  	0.177514 
1652.995312  	0.175395 
1654.924128  	0.181136 
1656.852944  	0.179373 
1658.781760  	0.177287 
1660.710576  	0.174860 
1662.639392  	0.173623 
1664.568208  	0.173259 
1666.497024  	0.170574 
1668.425840  	0.167403 
1670.354656  	0.167213 
1672.283472  	0.166724 
1674.212288  	0.165156 
1676.141104  	0.166708 
1678.069920  	0.167042 
1679.998736  	0.166579 
1681.927552  	0.164747 
1683.856368  	0.163721 
1685.785184  	0.168583 
1687.714000  	0.167414 
1689.642816  	0.166210 
1691.571632  	0.164847 
1693.500448  	0.160894 
1695.429264  	0.156401 
1697.358080  	0.153596 
1699.286896  	0.148348 
1701.215712  	0.146593 
1703.144528  	0.142752 
1705.073344  	0.137172 
1707.002160  	0.132835 
1708.930976  	0.128245 
1710.859792  	0.122713 
1712.788608  	0.115999 
1714.717424  	0.108723 
1716.646240  	0.101513 
1718.575056  	0.096517 
1720.503872  	0.091064 
1722.432688  	0.084834 
1724.361504  	0.078550 
1726.290320  	0.072674 
1728.219136  	0.066362 
1730.147952  	0.060503 
1732.076768  	0.054185 
1734.005584  	0.049476 
1735.934400  	0.046343 
1737.863216  	0.041584 
1739.792032  	0.037163 
1741.720848  	0.034198 
1743.649664  	0.031008 
1745.578480  	0.028020 
1747.507296  	0.024766 
1749.436112  	0.022997 
1751.364928  	0.022693 
1753.293744  	0.022209 
1755.222560  	0.020012 
1757.151376  	0.019521 
1759.080192  	0.018341 
1761.009008  	0.017330 
1762.937824  	0.017652 
1764.866640  	0.017216 
1766.795456  	0.015817 
1768.724272  	0.015500 
1770.653088  	0.013420 
1772.581904  	0.014030 
1774.510720  	0.015250 
1776.439536  	0.014978 
1778.368352  	0.014330 
1780.297168  	0.014421 
1782.225984  	0.014491 
1784.154800  	0.014165 
1786.083616  	0.014319 
1788.012432  	0.013896 
1789.941248  	0.012389 
1791.870064  	0.012248 
1793.798880  	0.013320 
1795.727696  	0.013376 
1797.656512  	0.012717 
1799.585328  	0.012104 
1801.514144  	0.012438 
1803.442960  	0.012607 
1805.371776  	0.012279 
1807.300592  	0.011974 
1809.229408  	0.011387 
1811.158224  	0.011619 
1813.087040  	0.011747 
1815.015856  	0.011401 
1816.944672  	0.011334 
1818.873488  	0.011850 
1820.802304  	0.011845 
1822.731120  	0.011285 
1824.659936  	0.010827 
1826.588752  	0.011157 
1828.517568  	0.009944 
1830.446384  	0.010947 
1832.375200  	0.011611 
1834.304016  	0.011127 
1836.232832  	0.011061 
1838.161648  	0.011671 
1840.090464  	0.011262 
1842.019280  	0.009971 
1843.948096  	0.009904 
1845.876912  	0.011236 
1847.805728  	0.011127 
1849.734544  	0.011359 
1851.663360  	0.010997 
1853.592176  	0.011001 
1855.520992  	0.010957 
1857.449808  	0.011362 
1859.378624  	0.011224 
1861.307440  	0.011057 
1863.236256  	0.010450 
1865.165072  	0.010117 
1867.093888  	0.009658 
1869.022704  	0.010579 
1870.951520  	0.011177 
1872.880336  	0.011020 
1874.809152  	0.010688 
1876.737968  	0.010611 
1878.666784  	0.010201 
1880.595600  	0.010456 
1882.524416  	0.010522 
1884.453232  	0.010392 
1886.382048  	0.010123 
1888.310864  	0.010053 
1890.239680  	0.010712 
1892.168496  	0.010996 
1894.097312  	0.010403 
1896.026128  	0.010922 
1897.954944  	0.010660 
1899.883760  	0.010258 
1901.812576  	0.010162 
1903.741392  	0.010586 
1905.670208  	0.010473 
1907.599024  	0.010029 
1909.527840  	0.009661 
1911.456656  	0.010552 
1913.385472  	0.011010 
1915.314288  	0.010681 
1917.243104  	0.010223 
1919.171920  	0.010769 
1921.100736  	0.010597 
1923.029552  	0.010834 
1924.958368  	0.010495 
1926.887184  	0.010308 
1928.816000  	0.009992 
1930.744816  	0.009840 
1932.673632  	0.009724 
1934.602448  	0.010168 
1936.531264  	0.010268 
1938.460080  	0.010262 
1940.388896  	0.009401 
1942.317712  	0.009082 
1944.246528  	0.009518 
1946.175344  	0.010180 
1948.104160  	0.009463 
1950.032976  	0.009510 
1951.961792  	0.009621 
1953.890608  	0.009482 
1955.819424  	0.008670 
1957.748240  	0.008915 
1959.677056  	0.009246 
1961.605872  	0.009060 
1963.534688  	0.008547 
1965.463504  	0.009502 
1967.392320  	0.009395 
1969.321136  	0.009397 
1971.249952  	0.009967 
1973.178768  	0.011004 
1975.107584  	0.009313 
1977.036400  	0.008794 
1978.965216  	0.010499 
1980.894032  	0.011083 
1982.822848  	0.009763 
1984.751664  	0.010316 
1986.680480  	0.010297 
1988.609296  	0.010522 
1990.538112  	0.010535 
1992.466928  	0.010579 
1994.395744  	0.010375 
1996.324560  	0.010179 
1998.253376  	0.009090 
2000.182192  	0.009471 
2002.111008  	0.010026 
2004.039824  	0.009587 
2005.968640  	0.008559 
2007.897456  	0.010010 
2009.826272  	0.010072 
2011.755088  	0.009210 
2013.683904  	0.009154 
2015.612720  	0.009983 
2017.541536  	0.009725 
2019.470352  	0.009650 
2021.399168  	0.009190 
2023.327984  	0.009794 
2025.256800  	0.009416 
2027.185616  	0.009199 
2029.114432  	0.009345 
2031.043248  	0.010981 
2032.972064  	0.010143 
2034.900880  	0.010487 
2036.829696  	0.010934 
2038.758512  	0.011038 
2040.687328  	0.010472 
2042.616144  	0.009996 
2044.544960  	0.009882 
2046.473776  	0.010698 
2048.402592  	0.010514 
2050.331408  	0.011335 
2052.260224  	0.011501 
2054.189040  	0.011557 
2056.117856  	0.010792 
2058.046672  	0.010294 
2059.975488  	0.010243 
2061.904304  	0.010485 
2063.833120  	0.011455 
2065.761936  	0.012235 
2067.690752  	0.011837 
2069.619568  	0.011530 
2071.548384  	0.010753 
2073.477200  	0.011172 
2075.406016  	0.011788 
2077.334832  	0.012224 
2079.263648  	0.011506 
2081.192464  	0.011273 
2083.121280  	0.011712 
2085.050096  	0.011953 
2086.978912  	0.011756 
2088.907728  	0.011733 
2090.836544  	0.011253 
2092.765360  	0.010773 
2094.694176  	0.010883 
2096.622992  	0.011350 
2098.551808  	0.011017 
2100.480624  	0.010972 
2102.409440  	0.010806 
2104.338256  	0.011352 
2106.267072  	0.011462 
2108.195888  	0.011726 
2110.124704  	0.012507 
2112.053520  	0.012951 
2113.982336  	0.012293 
2115.911152  	0.011890 
2117.839968  	0.011679 
2119.768784  	0.011336 
2121.697600  	0.010985 
2123.626416  	0.010728 
2125.555232  	0.010454 
2127.484048  	0.010678 
2129.412864  	0.010550 
2131.341680  	0.009762 
2133.270496  	0.009795 
2135.199312  	0.010310 
2137.128128  	0.010631 
2139.056944  	0.010705 
2140.985760  	0.009508 
2142.914576  	0.009880 
2144.843392  	0.009546 
2146.772208  	0.009786 
2148.701024  	0.010259 
2150.629840  	0.010640 
2152.558656  	0.009653 
2154.487472  	0.008616 
2156.416288  	0.007396 
2158.345104  	0.009973 
2160.273920  	0.012923 
2162.202736  	0.012174 
2164.131552  	0.010743 
2166.060368  	0.012735 
2167.989184  	0.011845 
2169.918000  	0.011032 
2171.846816  	0.011842 
2173.775632  	0.012190 
2175.704448  	0.012277 
2177.633264  	0.012664 
2179.562080  	0.011571 
2181.490896  	0.010615 
2183.419712  	0.011206 
2185.348528  	0.012139 
2187.277344  	0.011301 
2189.206160  	0.011535 
2191.134976  	0.012214 
2193.063792  	0.012843 
2194.992608  	0.012670 
2196.921424  	0.011450 
2198.850240  	0.011262 
2200.779056  	0.011849 
2202.707872  	0.011807 
2204.636688  	0.011752 
2206.565504  	0.011812 
2208.494320  	0.012410 
2210.423136  	0.011372 
2212.351952  	0.011094 
2214.280768  	0.011584 
2216.209584  	0.011688 
2218.138400  	0.012057 
2220.067216  	0.012320 
2221.996032  	0.011652 
2223.924848  	0.010834 
2225.853664  	0.011319 
2227.782480  	0.012367 
2229.711296  	0.012665 
2231.640112  	0.012329 
2233.568928  	0.011498 
2235.497744  	0.011566 
2237.426560  	0.011626 
2239.355376  	0.012057 
2241.284192  	0.011762 
2243.213008  	0.011660 
2245.141824  	0.011864 
2247.070640  	0.011627 
2248.999456  	0.011548 
2250.928272  	0.011799 
2252.857088  	0.011710 
2254.785904  	0.011868 
2256.714720  	0.012650 
2258.643536  	0.012944 
2260.572352  	0.012716 
2262.501168  	0.012785 
2264.429984  	0.013078 
2266.358800  	0.013576 
2268.287616  	0.013204 
2270.216432  	0.012950 
2272.145248  	0.013000 
2274.074064  	0.013192 
2276.002880  	0.013294 
2277.931696  	0.013757 
2279.860512  	0.014274 
2281.789328  	0.014508 
2283.718144  	0.014075 
2285.646960  	0.014251 
2287.575776  	0.014555 
2289.504592  	0.014450 
2291.433408  	0.014124 
2293.362224  	0.014065 
2295.291040  	0.014136 
2297.219856  	0.014179 
2299.148672  	0.014128 
2301.077488  	0.014012 
2303.006304  	0.014064 
2304.935120  	0.014060 
2306.863936  	0.013691 
2308.792752  	0.013482 
2310.721568  	0.013700 
2312.650384  	0.013528 
2314.579200  	0.013011 
2316.508016  	0.012748 
2318.436832  	0.012308 
2320.365648  	0.012315 
2322.294464  	0.012375 
2324.223280  	0.011988 
2326.152096  	0.010483 
2328.080912  	0.009449 
2330.009728  	0.009056 
2331.938544  	0.008861 
2333.867360  	0.007958 
2335.796176  	0.007286 
2337.724992  	0.007420 
2339.653808  	0.007697 
2341.582624  	0.007804 
2343.511440  	0.008965 
2345.440256  	0.010773 
2347.369072  	0.012007 
2349.297888  	0.010395 
2351.226704  	0.007876 
2353.155520  	0.006391 
2355.084336  	0.005535 
2357.013152  	0.004678 
2358.941968  	0.004329 
2360.870784  	0.004702 
2362.799600  	0.005196 
2364.728416  	0.005857 
2366.657232  	0.007078 
2368.586048  	0.007955 
2370.514864  	0.009314 
2372.443680  	0.010869 
2374.372496  	0.012532 
2376.301312  	0.013425 
2378.230128  	0.013989 
2380.158944  	0.014367 
2382.087760  	0.014427 
2384.016576  	0.014298 
2385.945392  	0.014249 
2387.874208  	0.013981 
2389.803024  	0.013734 
2391.731840  	0.013610 
2393.660656  	0.013675 
2395.589472  	0.013852 
2397.518288  	0.013912 
2399.447104  	0.013789 
2401.375920  	0.013664 
2403.304736  	0.013795 
2405.233552  	0.014111 
2407.162368  	0.014290 
2409.091184  	0.014341 
2411.020000  	0.014453 
2412.948816  	0.014513 
2414.877632  	0.014229 
2416.806448  	0.014262 
2418.735264  	0.014457 
2420.664080  	0.014326 
2422.592896  	0.014062 
2424.521712  	0.014105 
2426.450528  	0.014269 
2428.379344  	0.014166 
2430.308160  	0.014201 
2432.236976  	0.014413 
2434.165792  	0.014740 
2436.094608  	0.015228 
2438.023424  	0.015388 
2439.952240  	0.015341 
2441.881056  	0.015229 
2443.809872  	0.015213 
2445.738688  	0.015186 
2447.667504  	0.015274 
2449.596320  	0.015285 
2451.525136  	0.015442 
2453.453952  	0.015715 
2455.382768  	0.015924 
2457.311584  	0.015852 
2459.240400  	0.015752 
2461.169216  	0.015772 
2463.098032  	0.015847 
2465.026848  	0.015829 
2466.955664  	0.015777 
2468.884480  	0.015506 
2470.813296  	0.015435 
2472.742112  	0.015410 
2474.670928  	0.015518 
2476.599744  	0.015938 
2478.528560  	0.016292 
2480.457376  	0.016429 
2482.386192  	0.016293 
2484.315008  	0.016167 
2486.243824  	0.016167 
2488.172640  	0.016180 
2490.101456  	0.016321 
2492.030272  	0.016469 
2493.959088  	0.016233 
2495.887904  	0.016050 
2497.816720  	0.016258 
2499.745536  	0.016312 
2501.674352  	0.016403 
2503.603168  	0.016367 
2505.531984  	0.016362 
2507.460800  	0.016639 
2509.389616  	0.016621 
2511.318432  	0.016372 
2513.247248  	0.016302 
2515.176064  	0.016241 
2517.104880  	0.016602 
2519.033696  	0.016972 
2520.962512  	0.017014 
2522.891328  	0.017294 
2524.820144  	0.017339 
2526.748960  	0.017224 
2528.677776  	0.017390 
2530.606592  	0.017419 
2532.535408  	0.017372 
2534.464224  	0.017539 
2536.393040  	0.017626 
2538.321856  	0.017299 
2540.250672  	0.017402 
2542.179488  	0.017692 
2544.108304  	0.017687 
2546.037120  	0.017494 
2547.965936  	0.017743 
2549.894752  	0.018019 
2551.823568  	0.018157 
2553.752384  	0.018183 
2555.681200  	0.018183 
2557.610016  	0.018342 
2559.538832  	0.018478 
2561.467648  	0.018548 
2563.396464  	0.018786 
2565.325280  	0.019116 
2567.254096  	0.019231 
2569.182912  	0.018902 
2571.111728  	0.018681 
2573.040544  	0.018607 
2574.969360  	0.018736 
2576.898176  	0.019149 
2578.826992  	0.019468 
2580.755808  	0.019286 
2582.684624  	0.019215 
2584.613440  	0.019238 
2586.542256  	0.019499 
2588.471072  	0.019747 
2590.399888  	0.019774 
2592.328704  	0.019728 
2594.257520  	0.019934 
2596.186336  	0.020338 
2598.115152  	0.020479 
2600.043968  	0.020193 
2601.972784  	0.020193 
2603.901600  	0.020498 
2605.830416  	0.020646 
2607.759232  	0.020587 
2609.688048  	0.020755 
2611.616864  	0.020906 
2613.545680  	0.020907 
2615.474496  	0.021051 
2617.403312  	0.021180 
2619.332128  	0.021388 
2621.260944  	0.021426 
2623.189760  	0.021455 
2625.118576  	0.021682 
2627.047392  	0.021853 
2628.976208  	0.022184 
2630.905024  	0.022424 
2632.833840  	0.022688 
2634.762656  	0.022763 
2636.691472  	0.022599 
2638.620288  	0.022633 
2640.549104  	0.022918 
2642.477920  	0.023055 
2644.406736  	0.023167 
2646.335552  	0.023377 
2648.264368  	0.023504 
2650.193184  	0.023528 
2652.122000  	0.023635 
2654.050816  	0.023809 
2655.979632  	0.023935 
2657.908448  	0.024011 
2659.837264  	0.024008 
2661.766080  	0.023961 
2663.694896  	0.023992 
2665.623712  	0.023987 
2667.552528  	0.023992 
2669.481344  	0.024223 
2671.410160  	0.024431 
2673.338976  	0.024531 
2675.267792  	0.024645 
2677.196608  	0.024710 
2679.125424  	0.024894 
2681.054240  	0.024931 
2682.983056  	0.024994 
2684.911872  	0.025218 
2686.840688  	0.025312 
2688.769504  	0.025352 
2690.698320  	0.025462 
2692.627136  	0.025675 
2694.555952  	0.025840 
2696.484768  	0.025844 
2698.413584  	0.025922 
2700.342400  	0.025961 
2702.271216  	0.026165 
2704.200032  	0.026484 
2706.128848  	0.026645 
2708.057664  	0.026684 
2709.986480  	0.026728 
2711.915296  	0.026760 
2713.844112  	0.026879 
2715.772928  	0.027118 
2717.701744  	0.027408 
2719.630560  	0.027471 
2721.559376  	0.027426 
2723.488192  	0.027524 
2725.417008  	0.027757 
2727.345824  	0.027912 
2729.274640  	0.027955 
2731.203456  	0.027984 
2733.132272  	0.028216 
2735.061088  	0.028647 
2736.989904  	0.028769 
2738.918720  	0.028729 
2740.847536  	0.028770 
2742.776352  	0.028912 
2744.705168  	0.029079 
2746.633984  	0.029195 
2748.562800  	0.029296 
2750.491616  	0.029411 
2752.420432  	0.029517 
2754.349248  	0.029549 
2756.278064  	0.029630 
2758.206880  	0.029665 
2760.135696  	0.029912 
2762.064512  	0.030047 
2763.993328  	0.029976 
2765.922144  	0.030003 
2767.850960  	0.030038 
2769.779776  	0.029964 
2771.708592  	0.030100 
2773.637408  	0.030279 
2775.566224  	0.030359 
2777.495040  	0.030251 
2779.423856  	0.030239 
2781.352672  	0.030460 
2783.281488  	0.030705 
2785.210304  	0.030763 
2787.139120  	0.030913 
2789.067936  	0.031086 
2790.996752  	0.031168 
2792.925568  	0.031376 
2794.854384  	0.031603 
2796.783200  	0.031669 
2798.712016  	0.031467 
2800.640832  	0.031473 
2802.569648  	0.031690 
2804.498464  	0.031898 
2806.427280  	0.032043 
2808.356096  	0.032181 
2810.284912  	0.032398 
2812.213728  	0.032452 
2814.142544  	0.032560 
2816.071360  	0.032797 
2818.000176  	0.032842 
2819.928992  	0.032881 
2821.857808  	0.032980 
2823.786624  	0.032987 
2825.715440  	0.033011 
2827.644256  	0.033032 
2829.573072  	0.033149 
2831.501888  	0.033241 
2833.430704  	0.033258 
2835.359520  	0.033305 
2837.288336  	0.033428 
2839.217152  	0.033572 
2841.145968  	0.033591 
2843.074784  	0.033578 
2845.003600  	0.033668 
2846.932416  	0.033983 
2848.861232  	0.034392 
2850.790048  	0.034669 
2852.718864  	0.034829 
2854.647680  	0.035006 
2856.576496  	0.035456 
2858.505312  	0.035882 
2860.434128  	0.036231 
2862.362944  	0.036577 
2864.291760  	0.037037 
2866.220576  	0.037437 
2868.149392  	0.038041 
2870.078208  	0.038790 
2872.007024  	0.039356 
2873.935840  	0.039859 
2875.864656  	0.040568 
2877.793472  	0.041381 
2879.722288  	0.042222 
2881.651104  	0.043035 
2883.579920  	0.043642 
2885.508736  	0.044054 
2887.437552  	0.044350 
2889.366368  	0.044550 
2891.295184  	0.044922 
2893.224000  	0.045303 
2895.152816  	0.045506 
2897.081632  	0.045376 
2899.010448  	0.045959 
2900.939264  	0.046948 
2902.868080  	0.046738 
2904.796896  	0.046387 
2906.725712  	0.046413 
2908.654528  	0.046426 
2910.583344  	0.046691 
2912.512160  	0.047015 
2914.440976  	0.047081 
2916.369792  	0.047327 
2918.298608  	0.047686 
2920.227424  	0.048155 
2922.156240  	0.048751 
2924.085056  	0.049282 
2926.013872  	0.049781 
2927.942688  	0.050320 
2929.871504  	0.050860 
2931.800320  	0.051356 
2933.729136  	0.051795 
2935.657952  	0.052276 
2937.586768  	0.052696 
2939.515584  	0.052873 
2941.444400  	0.053179 
2943.373216  	0.053619 
2945.302032  	0.053949 
2947.230848  	0.054145 
2949.159664  	0.054247 
2951.088480  	0.054482 
2953.017296  	0.054911 
2954.946112  	0.054962 
2956.874928  	0.054845 
2958.803744  	0.054820 
2960.732560  	0.054943 
2962.661376  	0.055171 
2964.590192  	0.055444 
2966.519008  	0.055810 
2968.447824  	0.055949 
2970.376640  	0.056096 
2972.305456  	0.055886 
2974.234272  	0.055477 
2976.163088  	0.055186 
2978.091904  	0.055022 
2980.020720  	0.055006 
2981.949536  	0.054880 
2983.878352  	0.054733 
2985.807168  	0.054926 
2987.735984  	0.055539 
2989.664800  	0.055564 
2991.593616  	0.054219 
2993.522432  	0.053384 
2995.451248  	0.053296 
2997.380064  	0.053119 
2999.308880  	0.052856 
3001.237696  	0.052467 
3003.166512  	0.051988 
3005.095328  	0.051726 
3007.024144  	0.051524 
3008.952960  	0.051174 
3010.881776  	0.050756 
3012.810592  	0.050442 
3014.739408  	0.050126 
3016.668224  	0.049874 
3018.597040  	0.049627 
3020.525856  	0.049273 
3022.454672  	0.049014 
3024.383488  	0.048855 
3026.312304  	0.048744 
3028.241120  	0.048661 
3030.169936  	0.048568 
3032.098752  	0.048789 
3034.027568  	0.048656 
3035.956384  	0.048427 
3037.885200  	0.048503 
3039.814016  	0.048747 
3041.742832  	0.049069 
3043.671648  	0.049228 
3045.600464  	0.049309 
3047.529280  	0.049492 
3049.458096  	0.049681 
3051.386912  	0.049820 
3053.315728  	0.050018 
3055.244544  	0.050244 
3057.173360  	0.050663 
3059.102176  	0.051035 
3061.030992  	0.051331 
3062.959808  	0.051700 
3064.888624  	0.052072 
3066.817440  	0.052412 
3068.746256  	0.052643 
3070.675072  	0.053004 
3072.603888  	0.053607 
3074.532704  	0.054035 
3076.461520  	0.054270 
3078.390336  	0.054582 
3080.319152  	0.055066 
3082.247968  	0.055630 
3084.176784  	0.056032 
3086.105600  	0.056168 
3088.034416  	0.056474 
3089.963232  	0.057024 
3091.892048  	0.057586 
3093.820864  	0.057888 
3095.749680  	0.058161 
3097.678496  	0.058315 
3099.607312  	0.058632 
3101.536128  	0.059084 
3103.464944  	0.059499 
3105.393760  	0.059872 
3107.322576  	0.060308 
3109.251392  	0.060681 
3111.180208  	0.060954 
3113.109024  	0.061129 
3115.037840  	0.061230 
3116.966656  	0.061583 
3118.895472  	0.061965 
3120.824288  	0.062132 
3122.753104  	0.062397 
3124.681920  	0.062621 
3126.610736  	0.062812 
3128.539552  	0.063000 
3130.468368  	0.063066 
3132.397184  	0.063373 
3134.326000  	0.063751 
3136.254816  	0.063991 
3138.183632  	0.064274 
3140.112448  	0.064457 
3142.041264  	0.064637 
3143.970080  	0.064946 
3145.898896  	0.065230 
3147.827712  	0.065324 
3149.756528  	0.065767 
3151.685344  	0.066310 
3153.614160  	0.066552 
3155.542976  	0.066702 
3157.471792  	0.067019 
3159.400608  	0.067627 
3161.329424  	0.068019 
3163.258240  	0.068204 
3165.187056  	0.068445 
3167.115872  	0.068754 
3169.044688  	0.068930 
3170.973504  	0.068948 
3172.902320  	0.069096 
3174.831136  	0.069414 
3176.759952  	0.069617 
3178.688768  	0.069893 
3180.617584  	0.070088 
3182.546400  	0.069905 
3184.475216  	0.070149 
3186.404032  	0.070391 
3188.332848  	0.070349 
3190.261664  	0.070567 
3192.190480  	0.070651 
3194.119296  	0.070359 
3196.048112  	0.070232 
3197.976928  	0.070602 
3199.905744  	0.070653 
3201.834560  	0.070716 
3203.763376  	0.070858 
3205.692192  	0.070783 
3207.621008  	0.070619 
3209.549824  	0.070450 
3211.478640  	0.070401 
3213.407456  	0.070322 
3215.336272  	0.070456 
3217.265088  	0.070265 
3219.193904  	0.069808 
3221.122720  	0.069383 
3223.051536  	0.069171 
3224.980352  	0.069060 
3226.909168  	0.068832 
3228.837984  	0.068589 
3230.766800  	0.068514 
3232.695616  	0.068578 
3234.624432  	0.068476 
3236.553248  	0.068290 
3238.482064  	0.068068 
3240.410880  	0.067953 
3242.339696  	0.067878 
3244.268512  	0.067919 
3246.197328  	0.068108 
3248.126144  	0.068097 
3250.054960  	0.067953 
3251.983776  	0.067737 
3253.912592  	0.067873 
3255.841408  	0.068184 
3257.770224  	0.068379 
3259.699040  	0.068515 
3261.627856  	0.068565 
3263.556672  	0.068609 
3265.485488  	0.068568 
3267.414304  	0.068823 
3269.343120  	0.069002 
3271.271936  	0.069185 
3273.200752  	0.069261 
3275.129568  	0.069317 
3277.058384  	0.069280 
3278.987200  	0.069433 
3280.916016  	0.069599 
3282.844832  	0.069588 
3284.773648  	0.069681 
3286.702464  	0.069874 
3288.631280  	0.070101 
3290.560096  	0.070245 
3292.488912  	0.070423 
3294.417728  	0.070498 
3296.346544  	0.070738 
3298.275360  	0.071088 
3300.204176  	0.071363 
3302.132992  	0.071510 
3304.061808  	0.071779 
3305.990624  	0.072090 
3307.919440  	0.072317 
3309.848256  	0.072401 
3311.777072  	0.072305 
3313.705888  	0.072657 
3315.634704  	0.073223 
3317.563520  	0.073559 
3319.492336  	0.073610 
3321.421152  	0.073620 
3323.349968  	0.073747 
3325.278784  	0.074024 
3327.207600  	0.074077 
3329.136416  	0.073961 
3331.065232  	0.073857 
3332.994048  	0.074018 
3334.922864  	0.074120 
3336.851680  	0.074119 
3338.780496  	0.073996 
3340.709312  	0.073878 
3342.638128  	0.073873 
3344.566944  	0.073750 
3346.495760  	0.073624 
3348.424576  	0.073361 
3350.353392  	0.073199 
3352.282208  	0.073204 
3354.211024  	0.073159 
3356.139840  	0.072881 
3358.068656  	0.072430 
3359.997472  	0.072086 
3361.926288  	0.071880 
3363.855104  	0.071510 
3365.783920  	0.071285 
3367.712736  	0.071188 
3369.641552  	0.070807 
3371.570368  	0.070383 
3373.499184  	0.069982 
3375.428000  	0.069631 
3377.356816  	0.069519 
3379.285632  	0.069333 
3381.214448  	0.069030 
3383.143264  	0.068659 
3385.072080  	0.068609 
3387.000896  	0.068389 
3388.929712  	0.067897 
3390.858528  	0.067458 
3392.787344  	0.067312 
3394.716160  	0.066922 
3396.644976  	0.066592 
3398.573792  	0.066416 
3400.502608  	0.065779 
3402.431424  	0.065250 
3404.360240  	0.065021 
3406.289056  	0.064709 
3408.217872  	0.064209 
3410.146688  	0.063851 
3412.075504  	0.063760 
3414.004320  	0.063704 
3415.933136  	0.063280 
3417.861952  	0.062706 
3419.790768  	0.062309 
3421.719584  	0.061991 
3423.648400  	0.061497 
3425.577216  	0.061304 
3427.506032  	0.061286 
3429.434848  	0.060775 
3431.363664  	0.060294 
3433.292480  	0.060006 
3435.221296  	0.059767 
3437.150112  	0.059312 
3439.078928  	0.058933 
3441.007744  	0.058407 
3442.936560  	0.058135 
3444.865376  	0.057532 
3446.794192  	0.057034 
3448.723008  	0.057194 
3450.651824  	0.056590 
3452.580640  	0.055967 
3454.509456  	0.055605 
3456.438272  	0.055071 
3458.367088  	0.054488 
3460.295904  	0.054173 
3462.224720  	0.053889 
3464.153536  	0.053411 
3466.082352  	0.053080 
3468.011168  	0.052828 
3469.939984  	0.052168 
3471.868800  	0.051491 
3473.797616  	0.051025 
3475.726432  	0.050665 
3477.655248  	0.050008 
3479.584064  	0.049347 
3481.512880  	0.048960 
3483.441696  	0.048652 
3485.370512  	0.047825 
3487.299328  	0.047315 
3489.228144  	0.047053 
3491.156960  	0.046384 
3493.085776  	0.045912 
3495.014592  	0.045587 
3496.943408  	0.045317 
3498.872224  	0.044645 
3500.801040  	0.043948 
3502.729856  	0.043694 
3504.658672  	0.043582 
3506.587488  	0.042587 
3508.516304  	0.041857 
3510.445120  	0.042203 
3512.373936  	0.041955 
3514.302752  	0.041318 
3516.231568  	0.040901 
3518.160384  	0.040437 
3520.089200  	0.039868 
3522.018016  	0.039284 
3523.946832  	0.039346 
3525.875648  	0.039001 
3527.804464  	0.038521 
3529.733280  	0.038301 
3531.662096  	0.038052 
3533.590912  	0.037540 
3535.519728  	0.037154 
3537.448544  	0.037306 
3539.377360  	0.036811 
3541.306176  	0.035969 
3543.234992  	0.035013 
3545.163808  	0.034802 
3547.092624  	0.035236 
3549.021440  	0.034634 
3550.950256  	0.033533 
3552.879072  	0.033912 
3554.807888  	0.034108 
3556.736704  	0.033483 
3558.665520  	0.032709 
3560.594336  	0.032318 
3562.523152  	0.031558 
3564.451968  	0.029951 
3566.380784  	0.029678 
3568.309600  	0.031788 
3570.238416  	0.031432 
3572.167232  	0.030025 
3574.096048  	0.029515 
3576.024864  	0.029185 
3577.953680  	0.028717 
3579.882496  	0.028403 
3581.811312  	0.028045 
3583.740128  	0.026748 
3585.668944  	0.024996 
3587.597760  	0.026207 
3589.526576  	0.027479 
3591.455392  	0.025398 
3593.384208  	0.024279 
3595.313024  	0.024450 
3597.241840  	0.024141 
3599.170656  	0.023225 
3601.099472  	0.023292 
3603.028288  	0.023135 
3604.957104  	0.021600 
3606.885920  	0.020288 
3608.814736  	0.021180 
3610.743552  	0.020586 
3612.672368  	0.019384 
3614.601184  	0.019545 
3616.530000  	0.017775 
3618.458816  	0.017313 
3620.387632  	0.019156 
3622.316448  	0.018879 
3624.245264  	0.017115 
3626.174080  	0.014099 
3628.102896  	0.012931 
3630.031712  	0.018200 
3631.960528  	0.017164 
3633.889344  	0.015876 
3635.818160  	0.015489 
3637.746976  	0.014901 
3639.675792  	0.014928 
3641.604608  	0.014537 
3643.533424  	0.013500 
3645.462240  	0.010427 
3647.391056  	0.008742 
3649.319872  	0.011126 
3651.248688  	0.015388 
3653.177504  	0.014008 
3655.106320  	0.011436 
3657.035136  	0.013474 
3658.963952  	0.013525 
3660.892768  	0.012611 
3662.821584  	0.012340 
3664.750400  	0.011635 
3666.679216  	0.009409 
3668.608032  	0.007124 
3670.536848  	0.009833 
3672.465664  	0.009117 
3674.394480  	0.005514 
3676.323296  	0.010975 
3678.252112  	0.011268 
3680.180928  	0.010388 
3682.109744  	0.010046 
3684.038560  	0.009311 
3685.967376  	0.006996 
3687.896192  	0.005618 
3689.825008  	0.008176 
3691.753824  	0.009771 
3693.682640  	0.009515 
3695.611456  	0.008358 
3697.540272  	0.008134 
3699.469088  	0.006773 
3701.397904  	0.007130 
3703.326720  	0.008490 
3705.255536  	0.007183 
3707.184352  	0.004904 
3709.113168  	0.003399 
3711.041984  	0.004346 
3712.970800  	0.007654 
3714.899616  	0.007865 
3716.828432  	0.006436 
3718.757248  	0.005596 
3720.686064  	0.005007 
3722.614880  	0.005579 
3724.543696  	0.005924 
3726.472512  	0.006617 
3728.401328  	0.006183 
3730.330144  	0.003018 
3732.258960  	0.002124 
3734.187776  	0.002871 
3736.116592  	0.006378 
3738.045408  	0.007393 
3739.974224  	0.005318 
3741.903040  	0.002394 
3743.831856  	0.002556 
3745.760672  	0.007673 
3747.689488  	0.003153 
3749.618304  	0.001806 
3751.547120  	0.005279 
3753.475936  	0.008430 
3755.404752  	0.006613 
3757.333568  	0.005126 
3759.262384  	0.005891 
3761.191200  	0.007747 
3763.120016  	0.006331 
3765.048832  	0.005756 
3766.977648  	0.006135 
3768.906464  	0.005666 
3770.835280  	0.007866 
3772.764096  	0.008055 
3774.692912  	0.007061 
3776.621728  	0.005825 
3778.550544  	0.005355 
3780.479360  	0.007319 
3782.408176  	0.006858 
3784.336992  	0.006414 
3786.265808  	0.007190 
3788.194624  	0.007400 
3790.123440  	0.007235 
3792.052256  	0.006937 
3793.981072  	0.005675 
3795.909888  	0.005281 
3797.838704  	0.005700 
3799.767520  	0.003217 
3801.696336  	0.005828 
3803.625152  	0.007509 
3805.553968  	0.004640 
3807.482784  	0.007265 
3809.411600  	0.008434 
3811.340416  	0.007101 
3813.269232  	0.004788 
3815.198048  	0.003632 
3817.126864  	0.006373 
3819.055680  	0.003574 
3820.984496  	0.004782 
3822.913312  	0.008925 
3824.842128  	0.006554 
3826.770944  	0.006199 
3828.699760  	0.006206 
3830.628576  	0.005059 
3832.557392  	0.005291 
3834.486208  	0.004301 
3836.415024  	0.003461 
3838.343840  	0.005555 
3840.272656  	0.006816 
3842.201472  	0.006534 
3844.130288  	0.007294 
3846.059104  	0.007524 
3847.987920  	0.005744 
3849.916736  	0.002948 
3851.845552  	-0.000038 
3853.774368  	0.006380 
3855.703184  	0.010159 
3857.632000  	0.007854 
3859.560816  	0.006005 
3861.489632  	0.004842 
3863.418448  	0.005000 
3865.347264  	0.006850 
3867.276080  	0.005304 
3869.204896  	0.004286 
3871.133712  	0.007940 
3873.062528  	0.006583 
3874.991344  	0.007867 
3876.920160  	0.006855 
3878.848976  	0.004807 
3880.777792  	0.006789 
3882.706608  	0.006900 
3884.635424  	0.005317 
3886.564240  	0.008361 
3888.493056  	0.006967 
3890.421872  	0.005509 
3892.350688  	0.007813 
3894.279504  	0.007811 
3896.208320  	0.005898 
3898.137136  	0.004568 
3900.065952  	0.005118 
3901.994768  	0.005502 
3903.923584  	0.006954 
3905.852400  	0.008813 
3907.781216  	0.008243 
3909.710032  	0.007447 
3911.638848  	0.007196 
3913.567664  	0.006662 
3915.496480  	0.006114 
3917.425296  	0.007349 
3919.354112  	0.007894 
3921.282928  	0.007701 
3923.211744  	0.006879 
3925.140560  	0.007514 
3927.069376  	0.007530 
3928.998192  	0.006694 
3930.927008  	0.006911 
3932.855824  	0.008017 
3934.784640  	0.008200 
3936.713456  	0.007770 
3938.642272  	0.007651 
3940.571088  	0.006889 
3942.499904  	0.007378 
3944.428720  	0.008064 
3946.357536  	0.007143 
3948.286352  	0.007135 
3950.215168  	0.007524 
3952.143984  	0.007468 
3954.072800  	0.007315 
3956.001616  	0.007382 
3957.930432  	0.007636 
3959.859248  	0.007752 
3961.788064  	0.007778 
3963.716880  	0.007804 
3965.645696  	0.007661 
3967.574512  	0.007668 
3969.503328  	0.007703 
3971.432144  	0.007614 
3973.360960  	0.007669 
3975.289776  	0.007999 
3977.218592  	0.008050 
3979.147408  	0.007855 
3981.076224  	0.007691 
3983.005040  	0.007705 
3984.933856  	0.007869 
3986.862672  	0.008049 
3988.791488  	0.007842 
3990.720304  	0.007948 
3992.649120  	0.007903 
3994.577936  	0.007747 
3996.506752  	0.007859 
3998.435568  	0.008007 
4000.364384  	0.007916 