##TITLE=No Description
##DATA TYPE=INFRARED SPECTRUM
##XUNITS=1/CM
##YUNITS=Abs
399.264912  	0.589286 
401.193728  	0.576507 
403.122544  	0.581738 
405.051360  	0.573965 
406.980176  	0.577105 
408.908992  	0.560542 
410.837808  	0.561280 
412.766624  	0.565568 
414.695440  	0.564743 
416.624256  	0.551349 
418.553072  	0.551234 
420.481888  	0.549245 
422.410704  	0.546837 
424.339520  	0.538276 
426.268336  	0.544052 
428.197152  	0.536767 
430.125968  	0.530906 
432.054784  	0.527556 
433.983600  	0.527455 
435.912416  	0.524328 
437.841232  	0.522679 
439.770048  	0.517596 
441.698864  	0.518452 
443.627680  	0.515110 
445.556496  	0.516141 
447.485312  	0.512992 
449.414128  	0.512069 
451.342944  	0.506130 
453.271760  	0.506207 
455.200576  	0.504528 
457.129392  	0.502124 
459.058208  	0.500926 
460.987024  	0.507836 
462.915840  	0.510375 
464.844656  	0.510189 
466.773472  	0.505411 
468.702288  	0.503787 
470.631104  	0.500388 
472.559920  	0.497744 
474.488736  	0.495662 
476.417552  	0.498421 
478.346368  	0.499381 
480.275184  	0.500598 
482.204000  	0.499162 
484.132816  	0.501111 
486.061632  	0.493338 
487.990448  	0.494234 
489.919264  	0.495689 
491.848080  	0.494759 
493.776896  	0.492005 
495.705712  	0.489965 
497.634528  	0.485885 
499.563344  	0.485124 
501.492160  	0.484239 
503.420976  	0.488376 
505.349792  	0.487297 
507.278608  	0.488872 
509.207424  	0.487077 
511.136240  	0.486751 
513.065056  	0.486137 
514.993872  	0.488290 
516.922688  	0.488881 
518.851504  	0.489173 
520.780320  	0.488352 
522.709136  	0.490000 
524.637952  	0.485307 
526.566768  	0.481911 
528.495584  	0.479048 
530.424400  	0.476870 
532.353216  	0.473138 
534.282032  	0.469674 
536.210848  	0.466498 
538.139664  	0.464938 
540.068480  	0.459652 
541.997296  	0.455036 
543.926112  	0.451757 
545.854928  	0.449209 
547.783744  	0.443602 
549.712560  	0.441089 
551.641376  	0.438235 
553.570192  	0.434601 
555.499008  	0.431022 
557.427824  	0.429277 
559.356640  	0.425780 
561.285456  	0.422361 
563.214272  	0.417701 
565.143088  	0.413971 
567.071904  	0.409674 
569.000720  	0.407317 
570.929536  	0.404281 
572.858352  	0.400917 
574.787168  	0.397925 
576.715984  	0.394594 
578.644800  	0.390381 
580.573616  	0.387782 
582.502432  	0.383382 
584.431248  	0.380598 
586.360064  	0.378774 
588.288880  	0.376297 
590.217696  	0.373491 
592.146512  	0.372135 
594.075328  	0.369799 
596.004144  	0.367322 
597.932960  	0.365976 
599.861776  	0.365578 
601.790592  	0.364560 
603.719408  	0.363063 
605.648224  	0.361046 
607.577040  	0.360302 
609.505856  	0.359511 
611.434672  	0.358090 
613.363488  	0.355710 
615.292304  	0.354266 
617.221120  	0.352571 
619.149936  	0.351988 
621.078752  	0.349586 
623.007568  	0.346405 
624.936384  	0.344528 
626.865200  	0.343977 
628.794016  	0.342571 
630.722832  	0.341590 
632.651648  	0.340417 
634.580464  	0.339891 
636.509280  	0.340202 
638.438096  	0.339605 
640.366912  	0.338940 
642.295728  	0.337804 
644.224544  	0.334958 
646.153360  	0.332024 
648.082176  	0.328208 
650.010992  	0.325316 
651.939808  	0.321998 
653.868624  	0.318516 
655.797440  	0.314993 
657.726256  	0.312028 
659.655072  	0.308086 
661.583888  	0.304623 
663.512704  	0.301644 
665.441520  	0.298815 
667.370336  	0.293105 
669.299152  	0.288185 
671.227968  	0.287936 
673.156784  	0.285683 
675.085600  	0.283176 
677.014416  	0.281395 
678.943232  	0.279728 
680.872048  	0.277898 
682.800864  	0.276411 
684.729680  	0.275270 
686.658496  	0.273616 
688.587312  	0.271529 
690.516128  	0.269317 
692.444944  	0.268182 
694.373760  	0.266858 
696.302576  	0.265496 
698.231392  	0.263167 
700.160208  	0.260147 
702.089024  	0.257317 
704.017840  	0.255646 
705.946656  	0.253554 
707.875472  	0.251211 
709.804288  	0.249036 
711.733104  	0.247561 
713.661920  	0.246322 
715.590736  	0.245832 
717.519552  	0.245437 
719.448368  	0.245518 
721.377184  	0.246355 
723.306000  	0.247092 
725.234816  	0.246595 
727.163632  	0.245493 
729.092448  	0.243284 
731.021264  	0.240857 
732.950080  	0.238097 
734.878896  	0.235388 
736.807712  	0.232767 
738.736528  	0.230820 
740.665344  	0.229171 
742.594160  	0.227683 
744.522976  	0.226244 
746.451792  	0.225064 
748.380608  	0.224014 
750.309424  	0.223490 
752.238240  	0.223030 
754.167056  	0.222520 
756.095872  	0.221705 
758.024688  	0.220892 
759.953504  	0.220235 
761.882320  	0.220106 
763.811136  	0.220160 
765.739952  	0.219464 
767.668768  	0.218139 
769.597584  	0.217028 
771.526400  	0.216867 
773.455216  	0.218326 
775.384032  	0.220609 
777.312848  	0.224056 
779.241664  	0.227591 
781.170480  	0.228295 
783.099296  	0.225574 
785.028112  	0.221004 
786.956928  	0.215408 
788.885744  	0.210457 
790.814560  	0.206888 
792.743376  	0.204630 
794.672192  	0.202984 
796.601008  	0.202115 
798.529824  	0.200416 
800.458640  	0.197442 
802.387456  	0.194400 
804.316272  	0.192813 
806.245088  	0.192065 
808.173904  	0.191249 
810.102720  	0.191085 
812.031536  	0.191227 
813.960352  	0.191002 
815.889168  	0.190816 
817.817984  	0.190829 
819.746800  	0.190771 
821.675616  	0.190254 
823.604432  	0.189730 
825.533248  	0.188962 
827.462064  	0.187856 
829.390880  	0.186603 
831.319696  	0.185466 
833.248512  	0.184034 
835.177328  	0.182263 
837.106144  	0.180045 
839.034960  	0.177343 
840.963776  	0.174560 
842.892592  	0.172016 
844.821408  	0.169258 
846.750224  	0.166612 
848.679040  	0.164714 
850.607856  	0.162892 
852.536672  	0.161431 
854.465488  	0.160109 
856.394304  	0.158625 
858.323120  	0.157295 
860.251936  	0.156186 
862.180752  	0.154700 
864.109568  	0.153123 
866.038384  	0.151585 
867.967200  	0.150043 
869.896016  	0.148537 
871.824832  	0.147022 
873.753648  	0.146202 
875.682464  	0.146153 
877.611280  	0.146865 
879.540096  	0.147708 
881.468912  	0.148078 
883.397728  	0.148113 
885.326544  	0.148355 
887.255360  	0.148268 
889.184176  	0.147715 
891.112992  	0.146990 
893.041808  	0.145444 
894.970624  	0.143226 
896.899440  	0.140741 
898.828256  	0.137495 
900.757072  	0.133884 
902.685888  	0.130738 
904.614704  	0.128620 
906.543520  	0.127791 
908.472336  	0.128253 
910.401152  	0.129853 
912.329968  	0.132189 
914.258784  	0.134600 
916.187600  	0.136846 
918.116416  	0.138336 
920.045232  	0.138909 
921.974048  	0.138506 
923.902864  	0.137759 
925.831680  	0.136667 
927.760496  	0.135684 
929.689312  	0.134829 
931.618128  	0.134528 
933.546944  	0.134675 
935.475760  	0.135033 
937.404576  	0.135237 
939.333392  	0.135726 
941.262208  	0.136799 
943.191024  	0.138852 
945.119840  	0.142179 
947.048656  	0.146431 
948.977472  	0.151778 
950.906288  	0.158089 
952.835104  	0.165027 
954.763920  	0.172012 
956.692736  	0.178352 
958.621552  	0.183767 
960.550368  	0.187416 
962.479184  	0.189042 
964.408000  	0.188125 
966.336816  	0.184762 
968.265632  	0.178767 
970.194448  	0.171176 
972.123264  	0.162466 
974.052080  	0.153230 
975.980896  	0.144097 
977.909712  	0.135603 
979.838528  	0.128321 
981.767344  	0.122322 
983.696160  	0.118147 
985.624976  	0.116028 
987.553792  	0.115957 
989.482608  	0.117780 
991.411424  	0.121444 
993.340240  	0.126694 
995.269056  	0.133132 
997.197872  	0.139980 
999.126688  	0.146644 
1001.055504  	0.153446 
1002.984320  	0.160331 
1004.913136  	0.166987 
1006.841952  	0.172781 
1008.770768  	0.177779 
1010.699584  	0.181649 
1012.628400  	0.184402 
1014.557216  	0.186219 
1016.486032  	0.187322 
1018.414848  	0.188046 
1020.343664  	0.188723 
1022.272480  	0.189030 
1024.201296  	0.189409 
1026.130112  	0.190435 
1028.058928  	0.191421 
1029.987744  	0.191685 
1031.916560  	0.193612 
1033.845376  	0.196761 
1035.774192  	0.200812 
1037.703008  	0.205445 
1039.631824  	0.211380 
1041.560640  	0.218663 
1043.489456  	0.228060 
1045.418272  	0.239258 
1047.347088  	0.252157 
1049.275904  	0.265422 
1051.204720  	0.278487 
1053.133536  	0.289395 
1055.062352  	0.298168 
1056.991168  	0.303428 
1058.919984  	0.305593 
1060.848800  	0.305338 
1062.777616  	0.305089 
1064.706432  	0.303727 
1066.635248  	0.300586 
1068.564064  	0.294372 
1070.492880  	0.288442 
1072.421696  	0.282846 
1074.350512  	0.277812 
1076.279328  	0.273540 
1078.208144  	0.270318 
1080.136960  	0.267103 
1082.065776  	0.264104 
1083.994592  	0.260417 
1085.923408  	0.256757 
1087.852224  	0.252078 
1089.781040  	0.247273 
1091.709856  	0.240739 
1093.638672  	0.233192 
1095.567488  	0.224728 
1097.496304  	0.215926 
1099.425120  	0.206625 
1101.353936  	0.197091 
1103.282752  	0.187146 
1105.211568  	0.176995 
1107.140384  	0.166959 
1109.069200  	0.157243 
1110.998016  	0.147974 
1112.926832  	0.139321 
1114.855648  	0.131195 
1116.784464  	0.123208 
1118.713280  	0.115987 
1120.642096  	0.109654 
1122.570912  	0.103472 
1124.499728  	0.097666 
1126.428544  	0.092227 
1128.357360  	0.087244 
1130.286176  	0.082751 
1132.214992  	0.078697 
1134.143808  	0.075264 
1136.072624  	0.072137 
1138.001440  	0.069146 
1139.930256  	0.066211 
1141.859072  	0.063683 
1143.787888  	0.061169 
1145.716704  	0.059014 
1147.645520  	0.057358 
1149.574336  	0.056171 
1151.503152  	0.055233 
1153.431968  	0.054838 
1155.360784  	0.054892 
1157.289600  	0.055287 
1159.218416  	0.055983 
1161.147232  	0.057041 
1163.076048  	0.058217 
1165.004864  	0.059789 
1166.933680  	0.061328 
1168.862496  	0.063169 
1170.791312  	0.065491 
1172.720128  	0.067927 
1174.648944  	0.070254 
1176.577760  	0.072615 
1178.506576  	0.074940 
1180.435392  	0.077371 
1182.364208  	0.079878 
1184.293024  	0.082577 
1186.221840  	0.085356 
1188.150656  	0.088482 
1190.079472  	0.091973 
1192.008288  	0.096025 
1193.937104  	0.100728 
1195.865920  	0.106155 
1197.794736  	0.111955 
1199.723552  	0.118332 
1201.652368  	0.124976 
1203.581184  	0.131867 
1205.510000  	0.138507 
1207.438816  	0.145116 
1209.367632  	0.151644 
1211.296448  	0.157590 
1213.225264  	0.162938 
1215.154080  	0.167571 
1217.082896  	0.171697 
1219.011712  	0.175172 
1220.940528  	0.178320 
1222.869344  	0.180496 
1224.798160  	0.182131 
1226.726976  	0.183079 
1228.655792  	0.183651 
1230.584608  	0.183546 
1232.513424  	0.182466 
1234.442240  	0.180016 
1236.371056  	0.177005 
1238.299872  	0.173474 
1240.228688  	0.169662 
1242.157504  	0.164494 
1244.086320  	0.158360 
1246.015136  	0.152145 
1247.943952  	0.146174 
1249.872768  	0.140005 
1251.801584  	0.133551 
1253.730400  	0.127127 
1255.659216  	0.121125 
1257.588032  	0.115261 
1259.516848  	0.109555 
1261.445664  	0.104191 
1263.374480  	0.099339 
1265.303296  	0.094862 
1267.232112  	0.091053 
1269.160928  	0.088098 
1271.089744  	0.086091 
1273.018560  	0.085135 
1274.947376  	0.084733 
1276.876192  	0.084309 
1278.805008  	0.083522 
1280.733824  	0.081974 
1282.662640  	0.079234 
1284.591456  	0.075660 
1286.520272  	0.072124 
1288.449088  	0.069201 
1290.377904  	0.066960 
1292.306720  	0.065192 
1294.235536  	0.063113 
1296.164352  	0.060253 
1298.093168  	0.057016 
1300.021984  	0.053800 
1301.950800  	0.050721 
1303.879616  	0.048141 
1305.808432  	0.046097 
1307.737248  	0.044430 
1309.666064  	0.042891 
1311.594880  	0.041957 
1313.523696  	0.041415 
1315.452512  	0.041256 
1317.381328  	0.041443 
1319.310144  	0.041993 
1321.238960  	0.042840 
1323.167776  	0.043783 
1325.096592  	0.044335 
1327.025408  	0.044461 
1328.954224  	0.044113 
1330.883040  	0.043527 
1332.811856  	0.042604 
1334.740672  	0.041667 
1336.669488  	0.040579 
1338.598304  	0.039663 
1340.527120  	0.039357 
1342.455936  	0.039465 
1344.384752  	0.039516 
1346.313568  	0.040038 
1348.242384  	0.041040 
1350.171200  	0.042614 
1352.100016  	0.044448 
1354.028832  	0.046260 
1355.957648  	0.048330 
1357.886464  	0.050475 
1359.815280  	0.051893 
1361.744096  	0.053072 
1363.672912  	0.054990 
1365.601728  	0.056748 
1367.530544  	0.057640 
1369.459360  	0.058211 
1371.388176  	0.057933 
1373.316992  	0.056707 
1375.245808  	0.055641 
1377.174624  	0.054813 
1379.103440  	0.053425 
1381.032256  	0.052133 
1382.961072  	0.050889 
1384.889888  	0.049582 
1386.818704  	0.047919 
1388.747520  	0.046968 
1390.676336  	0.046378 
1392.605152  	0.046060 
1394.533968  	0.045138 
1396.462784  	0.044257 
1398.391600  	0.044181 
1400.320416  	0.045631 
1402.249232  	0.047036 
1404.178048  	0.048056 
1406.106864  	0.049584 
1408.035680  	0.051303 
1409.964496  	0.052593 
1411.893312  	0.054042 
1413.822128  	0.055361 
1415.750944  	0.055953 
1417.679760  	0.055202 
1419.608576  	0.054953 
1421.537392  	0.055172 
1423.466208  	0.054069 
1425.395024  	0.052851 
1427.323840  	0.051267 
1429.252656  	0.049032 
1431.181472  	0.047787 
1433.110288  	0.047448 
1435.039104  	0.046867 
1436.967920  	0.046855 
1438.896736  	0.048273 
1440.825552  	0.049045 
1442.754368  	0.049598 
1444.683184  	0.049507 
1446.612000  	0.049056 
1448.540816  	0.049279 
1450.469632  	0.050023 
1452.398448  	0.049982 
1454.327264  	0.049228 
1456.256080  	0.047110 
1458.184896  	0.047353 
1460.113712  	0.049415 
1462.042528  	0.050332 
1463.971344  	0.050071 
1465.900160  	0.051862 
1467.828976  	0.054249 
1469.757792  	0.055997 
1471.686608  	0.057392 
1473.615424  	0.061905 
1475.544240  	0.065776 
1477.473056  	0.069005 
1479.401872  	0.070609 
1481.330688  	0.071143 
1483.259504  	0.071225 
1485.188320  	0.070198 
1487.117136  	0.067736 
1489.045952  	0.064991 
1490.974768  	0.062581 
1492.903584  	0.060758 
1494.832400  	0.057231 
1496.761216  	0.052919 
1498.690032  	0.049989 
1500.618848  	0.048148 
1502.547664  	0.046237 
1504.476480  	0.043021 
1506.405296  	0.038140 
1508.334112  	0.038302 
1510.262928  	0.039187 
1512.191744  	0.038759 
1514.120560  	0.037739 
1516.049376  	0.036584 
1517.978192  	0.036894 
1519.907008  	0.037113 
1521.835824  	0.038493 
1523.764640  	0.042139 
1525.693456  	0.044454 
1527.622272  	0.046857 
1529.551088  	0.048709 
1531.479904  	0.048701 
1533.408720  	0.047327 
1535.337536  	0.047460 
1537.266352  	0.045242 
1539.195168  	0.039895 
1541.123984  	0.037291 
1543.052800  	0.038268 
1544.981616  	0.038429 
1546.910432  	0.038555 
1548.839248  	0.037619 
1550.768064  	0.037556 
1552.696880  	0.037501 
1554.625696  	0.037448 
1556.554512  	0.036473 
1558.483328  	0.034441 
1560.412144  	0.040724 
1562.340960  	0.045209 
1564.269776  	0.047220 
1566.198592  	0.050667 
1568.127408  	0.052960 
1570.056224  	0.057407 
1571.985040  	0.062299 
1573.913856  	0.064116 
1575.842672  	0.064543 
1577.771488  	0.067283 
1579.700304  	0.068188 
1581.629120  	0.068387 
1583.557936  	0.068620 
1585.486752  	0.069939 
1587.415568  	0.072348 
1589.344384  	0.076057 
1591.273200  	0.080424 
1593.202016  	0.085464 
1595.130832  	0.090308 
1597.059648  	0.095252 
1598.988464  	0.099074 
1600.917280  	0.102106 
1602.846096  	0.103656 
1604.774912  	0.104696 
1606.703728  	0.104267 
1608.632544  	0.103718 
1610.561360  	0.103066 
1612.490176  	0.102931 
1614.418992  	0.101835 
1616.347808  	0.101902 
1618.276624  	0.105594 
1620.205440  	0.109309 
1622.134256  	0.112167 
1624.063072  	0.118676 
1625.991888  	0.124869 
1627.920704  	0.131393 
1629.849520  	0.139046 
1631.778336  	0.145407 
1633.707152  	0.149159 
1635.635968  	0.154690 
1637.564784  	0.163077 
1639.493600  	0.168331 
1641.422416  	0.171976 
1643.351232  	0.174186 
1645.280048  	0.173594 
1647.208864  	0.174334 
1649.137680  	0.176338 
1651.066496  	0.174464 
1652.995312  	0.169988 
1654.924128  	0.173216 
1656.852944  	0.173424 
1658.781760  	0.172301 
1660.710576  	0.170246 
1662.639392  	0.168175 
1664.568208  	0.167482 
1666.497024  	0.165850 
1668.425840  	0.162542 
1670.354656  	0.160982 
1672.283472  	0.160861 
1674.212288  	0.159756 
1676.141104  	0.160104 
1678.069920  	0.161075 
1679.998736  	0.160743 
1681.927552  	0.159567 
1683.856368  	0.157362 
1685.785184  	0.160373 
1687.714000  	0.160628 
1689.642816  	0.159462 
1691.571632  	0.158110 
1693.500448  	0.155559 
1695.429264  	0.150663 
1697.358080  	0.147227 
1699.286896  	0.143062 
1701.215712  	0.138938 
1703.144528  	0.136442 
1705.073344  	0.131513 
1707.002160  	0.127026 
1708.930976  	0.122917 
1710.859792  	0.117722 
1712.788608  	0.111747 
1714.717424  	0.104814 
1716.646240  	0.097237 
1718.575056  	0.090846 
1720.503872  	0.086368 
1722.432688  	0.081049 
1724.361504  	0.074778 
1726.290320  	0.069286 
1728.219136  	0.063415 
1730.147952  	0.057671 
1732.076768  	0.052226 
1734.005584  	0.046088 
1735.934400  	0.042238 
1737.863216  	0.039153 
1739.792032  	0.034120 
1741.720848  	0.031143 
1743.649664  	0.028228 
1745.578480  	0.025596 
1747.507296  	0.022380 
1749.436112  	0.020208 
1751.364928  	0.019190 
1753.293744  	0.019228 
1755.222560  	0.017835 
1757.151376  	0.016665 
1759.080192  	0.015884 
1761.009008  	0.015054 
1762.937824  	0.014586 
1764.866640  	0.014743 
1766.795456  	0.013785 
1768.724272  	0.013182 
1770.653088  	0.011571 
1772.581904  	0.010842 
1774.510720  	0.011831 
1776.439536  	0.012432 
1778.368352  	0.012195 
1780.297168  	0.012004 
1782.225984  	0.011874 
1784.154800  	0.011791 
1786.083616  	0.011704 
1788.012432  	0.011694 
1789.941248  	0.010684 
1791.870064  	0.009749 
1793.798880  	0.010070 
1795.727696  	0.010789 
1797.656512  	0.010446 
1799.585328  	0.009949 
1801.514144  	0.009734 
1803.442960  	0.010102 
1805.371776  	0.009986 
1807.300592  	0.009796 
1809.229408  	0.009157 
1811.158224  	0.009055 
1813.087040  	0.009151 
1815.015856  	0.009204 
1816.944672  	0.008949 
1818.873488  	0.009419 
1820.802304  	0.009509 
1822.731120  	0.009297 
1824.659936  	0.008504 
1826.588752  	0.008808 
1828.517568  	0.008272 
1830.446384  	0.008440 
1832.375200  	0.009194 
1834.304016  	0.009164 
1836.232832  	0.008766 
1838.161648  	0.009307 
1840.090464  	0.009134 
1842.019280  	0.008352 
1843.948096  	0.007345 
1845.876912  	0.008173 
1847.805728  	0.008780 
1849.734544  	0.009139 
1851.663360  	0.009070 
1853.592176  	0.009228 
1855.520992  	0.009302 
1857.449808  	0.009618 
1859.378624  	0.009299 
1861.307440  	0.009150 
1863.236256  	0.008877 
1865.165072  	0.008672 
1867.093888  	0.008166 
1869.022704  	0.008246 
1870.951520  	0.008480 
1872.880336  	0.008904 
1874.809152  	0.008765 
1876.737968  	0.009090 
1878.666784  	0.008899 
1880.595600  	0.008927 
1882.524416  	0.008863 
1884.453232  	0.008802 
1886.382048  	0.008577 
1888.310864  	0.008467 
1890.239680  	0.008513 
1892.168496  	0.009193 
1894.097312  	0.008767 
1896.026128  	0.008685 
1897.954944  	0.008732 
1899.883760  	0.008834 
1901.812576  	0.008577 
1903.741392  	0.008750 
1905.670208  	0.008647 
1907.599024  	0.008473 
1909.527840  	0.007841 
1911.456656  	0.008129 
1913.385472  	0.008746 
1915.314288  	0.009183 
1917.243104  	0.008474 
1919.171920  	0.008272 
1921.100736  	0.008275 
1923.029552  	0.008764 
1924.958368  	0.008692 
1926.887184  	0.009171 
1928.816000  	0.008580 
1930.744816  	0.008224 
1932.673632  	0.008185 
1934.602448  	0.008510 
1936.531264  	0.008630 
1938.460080  	0.008624 
1940.388896  	0.008239 
1942.317712  	0.008130 
1944.246528  	0.007901 
1946.175344  	0.008532 
1948.104160  	0.007715 
1950.032976  	0.007485 
1951.961792  	0.007778 
1953.890608  	0.008436 
1955.819424  	0.008092 
1957.748240  	0.007969 
1959.677056  	0.008266 
1961.605872  	0.008769 
1963.534688  	0.008232 
1965.463504  	0.008861 
1967.392320  	0.008131 
1969.321136  	0.007953 
1971.249952  	0.008454 
1973.178768  	0.009904 
1975.107584  	0.008411 
1977.036400  	0.007650 
1978.965216  	0.009572 
1980.894032  	0.010590 
1982.822848  	0.008421 
1984.751664  	0.008634 
1986.680480  	0.008805 
1988.609296  	0.008636 
1990.538112  	0.008233 
1992.466928  	0.008624 
1994.395744  	0.008655 
1996.324560  	0.008937 
1998.253376  	0.008184 
2000.182192  	0.007736 
2002.111008  	0.008127 
2004.039824  	0.008424 
2005.968640  	0.006991 
2007.897456  	0.007887 
2009.826272  	0.007975 
2011.755088  	0.007528 
2013.683904  	0.007464 
2015.612720  	0.008163 
2017.541536  	0.007955 
2019.470352  	0.008697 
2021.399168  	0.008293 
2023.327984  	0.009410 
2025.256800  	0.009130 
2027.185616  	0.008360 
2029.114432  	0.008430 
2031.043248  	0.009260 
2032.972064  	0.008373 
2034.900880  	0.009121 
2036.829696  	0.009180 
2038.758512  	0.008165 
2040.687328  	0.007986 
2042.616144  	0.008616 
2044.544960  	0.009010 
2046.473776  	0.009276 
2048.402592  	0.009198 
2050.331408  	0.010586 
2052.260224  	0.010129 
2054.189040  	0.009796 
2056.117856  	0.009238 
2058.046672  	0.009424 
2059.975488  	0.009346 
2061.904304  	0.009557 
2063.833120  	0.009930 
2065.761936  	0.010016 
2067.690752  	0.009436 
2069.619568  	0.009110 
2071.548384  	0.008055 
2073.477200  	0.008478 
2075.406016  	0.009692 
2077.334832  	0.010199 
2079.263648  	0.009588 
2081.192464  	0.009646 
2083.121280  	0.009982 
2085.050096  	0.009932 
2086.978912  	0.009509 
2088.907728  	0.009678 
2090.836544  	0.009212 
2092.765360  	0.008759 
2094.694176  	0.009011 
2096.622992  	0.009414 
2098.551808  	0.009068 
2100.480624  	0.009017 
2102.409440  	0.008970 
2104.338256  	0.009520 
2106.267072  	0.009583 
2108.195888  	0.009862 
2110.124704  	0.010294 
2112.053520  	0.010280 
2113.982336  	0.009868 
2115.911152  	0.010082 
2117.839968  	0.009615 
2119.768784  	0.009042 
2121.697600  	0.008763 
2123.626416  	0.008359 
2125.555232  	0.008275 
2127.484048  	0.008975 
2129.412864  	0.008676 
2131.341680  	0.007949 
2133.270496  	0.008248 
2135.199312  	0.009025 
2137.128128  	0.009293 
2139.056944  	0.009328 
2140.985760  	0.008442 
2142.914576  	0.008889 
2144.843392  	0.007810 
2146.772208  	0.007670 
2148.701024  	0.008348 
2150.629840  	0.009111 
2152.558656  	0.008330 
2154.487472  	0.007566 
2156.416288  	0.007472 
2158.345104  	0.009275 
2160.273920  	0.011155 
2162.202736  	0.011262 
2164.131552  	0.011043 
2166.060368  	0.013254 
2167.989184  	0.011330 
2169.918000  	0.009931 
2171.846816  	0.009542 
2173.775632  	0.010274 
2175.704448  	0.011839 
2177.633264  	0.012510 
2179.562080  	0.011052 
2181.490896  	0.010521 
2183.419712  	0.010396 
2185.348528  	0.011469 
2187.277344  	0.011316 
2189.206160  	0.011268 
2191.134976  	0.011604 
2193.063792  	0.012496 
2194.992608  	0.012049 
2196.921424  	0.011144 
2198.850240  	0.011115 
2200.779056  	0.011224 
2202.707872  	0.011093 
2204.636688  	0.011097 
2206.565504  	0.010837 
2208.494320  	0.010895 
2210.423136  	0.009682 
2212.351952  	0.009708 
2214.280768  	0.010247 
2216.209584  	0.010370 
2218.138400  	0.010173 
2220.067216  	0.010011 
2221.996032  	0.009777 
2223.924848  	0.009690 
2225.853664  	0.010500 
2227.782480  	0.011404 
2229.711296  	0.011123 
2231.640112  	0.010791 
2233.568928  	0.010183 
2235.497744  	0.009996 
2237.426560  	0.009827 
2239.355376  	0.009714 
2241.284192  	0.009736 
2243.213008  	0.010039 
2245.141824  	0.009912 
2247.070640  	0.009691 
2248.999456  	0.009718 
2250.928272  	0.009993 
2252.857088  	0.009683 
2254.785904  	0.009727 
2256.714720  	0.010510 
2258.643536  	0.010925 
2260.572352  	0.010309 
2262.501168  	0.010432 
2264.429984  	0.010856 
2266.358800  	0.011112 
2268.287616  	0.010670 
2270.216432  	0.010760 
2272.145248  	0.010602 
2274.074064  	0.010514 
2276.002880  	0.010571 
2277.931696  	0.011240 
2279.860512  	0.011485 
2281.789328  	0.011238 
2283.718144  	0.011442 
2285.646960  	0.011823 
2287.575776  	0.011644 
2289.504592  	0.011406 
2291.433408  	0.010880 
2293.362224  	0.010429 
2295.291040  	0.010209 
2297.219856  	0.010341 
2299.148672  	0.010411 
2301.077488  	0.010392 
2303.006304  	0.010389 
2304.935120  	0.010185 
2306.863936  	0.009816 
2308.792752  	0.009576 
2310.721568  	0.009252 
2312.650384  	0.008910 
2314.579200  	0.008496 
2316.508016  	0.008361 
2318.436832  	0.007550 
2320.365648  	0.006700 
2322.294464  	0.006407 
2324.223280  	0.005856 
2326.152096  	0.004548 
2328.080912  	0.003496 
2330.009728  	0.002611 
2331.938544  	0.002146 
2333.867360  	0.001470 
2335.796176  	0.000994 
2337.724992  	0.000749 
2339.653808  	0.000371 
2341.582624  	0.000020 
2343.511440  	0.001124 
2345.440256  	0.002729 
2347.369072  	0.004895 
2349.297888  	0.005385 
2351.226704  	0.003343 
2353.155520  	0.000939 
2355.084336  	-0.000993 
2357.013152  	-0.002341 
2358.941968  	-0.003151 
2360.870784  	-0.003651 
2362.799600  	-0.003013 
2364.728416  	-0.002257 
2366.657232  	-0.000923 
2368.586048  	0.000289 
2370.514864  	0.002181 
2372.443680  	0.004315 
2374.372496  	0.006112 
2376.301312  	0.007489 
2378.230128  	0.008870 
2380.158944  	0.009666 
2382.087760  	0.010158 
2384.016576  	0.010607 
2385.945392  	0.011057 
2387.874208  	0.011090 
2389.803024  	0.010937 
2391.731840  	0.010742 
2393.660656  	0.010921 
2395.589472  	0.011160 
2397.518288  	0.011241 
2399.447104  	0.011137 
2401.375920  	0.010881 
2403.304736  	0.010921 
2405.233552  	0.011158 
2407.162368  	0.011231 
2409.091184  	0.011138 
2411.020000  	0.011151 
2412.948816  	0.011336 
2414.877632  	0.011223 
2416.806448  	0.011261 
2418.735264  	0.011459 
2420.664080  	0.011560 
2422.592896  	0.011305 
2424.521712  	0.011308 
2426.450528  	0.011528 
2428.379344  	0.011478 
2430.308160  	0.011479 
2432.236976  	0.011456 
2434.165792  	0.011595 
2436.094608  	0.011992 
2438.023424  	0.012309 
2439.952240  	0.012449 
2441.881056  	0.012438 
2443.809872  	0.012363 
2445.738688  	0.012337 
2447.667504  	0.012356 
2449.596320  	0.012367 
2451.525136  	0.012446 
2453.453952  	0.012488 
2455.382768  	0.012833 
2457.311584  	0.013117 
2459.240400  	0.012943 
2461.169216  	0.012637 
2463.098032  	0.012625 
2465.026848  	0.012649 
2466.955664  	0.012720 
2468.884480  	0.012603 
2470.813296  	0.012691 
2472.742112  	0.012684 
2474.670928  	0.012665 
2476.599744  	0.012753 
2478.528560  	0.012910 
2480.457376  	0.013160 
2482.386192  	0.013230 
2484.315008  	0.013071 
2486.243824  	0.013074 
2488.172640  	0.013092 
2490.101456  	0.013365 
2492.030272  	0.013581 
2493.959088  	0.013357 
2495.887904  	0.013168 
2497.816720  	0.013340 
2499.745536  	0.013423 
2501.674352  	0.013610 
2503.603168  	0.013630 
2505.531984  	0.013669 
2507.460800  	0.013717 
2509.389616  	0.013680 
2511.318432  	0.013429 
2513.247248  	0.013429 
2515.176064  	0.013666 
2517.104880  	0.014076 
2519.033696  	0.014216 
2520.962512  	0.014248 
2522.891328  	0.014430 
2524.820144  	0.014342 
2526.748960  	0.014239 
2528.677776  	0.014499 
2530.606592  	0.014601 
2532.535408  	0.014666 
2534.464224  	0.014942 
2536.393040  	0.014871 
2538.321856  	0.014530 
2540.250672  	0.014632 
2542.179488  	0.014950 
2544.108304  	0.015223 
2546.037120  	0.015065 
2547.965936  	0.015263 
2549.894752  	0.015483 
2551.823568  	0.015550 
2553.752384  	0.015627 
2555.681200  	0.015603 
2557.610016  	0.015623 
2559.538832  	0.015695 
2561.467648  	0.015714 
2563.396464  	0.015915 
2565.325280  	0.016080 
2567.254096  	0.016215 
2569.182912  	0.016059 
2571.111728  	0.016045 
2573.040544  	0.015943 
2574.969360  	0.015913 
2576.898176  	0.016085 
2578.826992  	0.016405 
2580.755808  	0.016463 
2582.684624  	0.016440 
2584.613440  	0.016364 
2586.542256  	0.016666 
2588.471072  	0.016883 
2590.399888  	0.016701 
2592.328704  	0.016709 
2594.257520  	0.016913 
2596.186336  	0.017247 
2598.115152  	0.017339 
2600.043968  	0.017349 
2601.972784  	0.017526 
2603.901600  	0.017628 
2605.830416  	0.017708 
2607.759232  	0.017528 
2609.688048  	0.017605 
2611.616864  	0.017868 
2613.545680  	0.018077 
2615.474496  	0.018098 
2617.403312  	0.018076 
2619.332128  	0.018327 
2621.260944  	0.018443 
2623.189760  	0.018346 
2625.118576  	0.018377 
2627.047392  	0.018449 
2628.976208  	0.018854 
2630.905024  	0.019101 
2632.833840  	0.019196 
2634.762656  	0.019282 
2636.691472  	0.019308 
2638.620288  	0.019410 
2640.549104  	0.019572 
2642.477920  	0.019664 
2644.406736  	0.019776 
2646.335552  	0.019955 
2648.264368  	0.020189 
2650.193184  	0.020214 
2652.122000  	0.020390 
2654.050816  	0.020594 
2655.979632  	0.020578 
2657.908448  	0.020644 
2659.837264  	0.020776 
2661.766080  	0.020733 
2663.694896  	0.020784 
2665.623712  	0.020788 
2667.552528  	0.020784 
2669.481344  	0.020975 
2671.410160  	0.021217 
2673.338976  	0.021334 
2675.267792  	0.021391 
2677.196608  	0.021458 
2679.125424  	0.021633 
2681.054240  	0.021730 
2682.983056  	0.021744 
2684.911872  	0.021949 
2686.840688  	0.022105 
2688.769504  	0.022233 
2690.698320  	0.022352 
2692.627136  	0.022437 
2694.555952  	0.022479 
2696.484768  	0.022334 
2698.413584  	0.022409 
2700.342400  	0.022617 
2702.271216  	0.022868 
2704.200032  	0.023079 
2706.128848  	0.023185 
2708.057664  	0.023310 
2709.986480  	0.023359 
2711.915296  	0.023404 
2713.844112  	0.023532 
2715.772928  	0.023791 
2717.701744  	0.024046 
2719.630560  	0.024029 
2721.559376  	0.024079 
2723.488192  	0.024238 
2725.417008  	0.024442 
2727.345824  	0.024589 
2729.274640  	0.024643 
2731.203456  	0.024683 
2733.132272  	0.024815 
2735.061088  	0.025059 
2736.989904  	0.025208 
2738.918720  	0.025277 
2740.847536  	0.025317 
2742.776352  	0.025462 
2744.705168  	0.025627 
2746.633984  	0.025643 
2748.562800  	0.025719 
2750.491616  	0.025844 
2752.420432  	0.025994 
2754.349248  	0.025997 
2756.278064  	0.025969 
2758.206880  	0.026042 
2760.135696  	0.026300 
2762.064512  	0.026326 
2763.993328  	0.026331 
2765.922144  	0.026463 
2767.850960  	0.026566 
2769.779776  	0.026591 
2771.708592  	0.026704 
2773.637408  	0.026777 
2775.566224  	0.026845 
2777.495040  	0.026842 
2779.423856  	0.026872 
2781.352672  	0.027070 
2783.281488  	0.027213 
2785.210304  	0.027274 
2787.139120  	0.027447 
2789.067936  	0.027639 
2790.996752  	0.027666 
2792.925568  	0.027737 
2794.854384  	0.027936 
2796.783200  	0.028058 
2798.712016  	0.027987 
2800.640832  	0.027998 
2802.569648  	0.028212 
2804.498464  	0.028337 
2806.427280  	0.028426 
2808.356096  	0.028535 
2810.284912  	0.028743 
2812.213728  	0.028831 
2814.142544  	0.028872 
2816.071360  	0.029098 
2818.000176  	0.029058 
2819.928992  	0.028941 
2821.857808  	0.029185 
2823.786624  	0.029370 
2825.715440  	0.029437 
2827.644256  	0.029477 
2829.573072  	0.029599 
2831.501888  	0.029595 
2833.430704  	0.029502 
2835.359520  	0.029539 
2837.288336  	0.029528 
2839.217152  	0.029512 
2841.145968  	0.029665 
2843.074784  	0.029804 
2845.003600  	0.029943 
2846.932416  	0.030167 
2848.861232  	0.030352 
2850.790048  	0.030459 
2852.718864  	0.030622 
2854.647680  	0.030818 
2856.576496  	0.031208 
2858.505312  	0.031609 
2860.434128  	0.031911 
2862.362944  	0.032108 
2864.291760  	0.032386 
2866.220576  	0.032755 
2868.149392  	0.033343 
2870.078208  	0.033891 
2872.007024  	0.034278 
2873.935840  	0.034707 
2875.864656  	0.035343 
2877.793472  	0.036138 
2879.722288  	0.036893 
2881.651104  	0.037609 
2883.579920  	0.038199 
2885.508736  	0.038565 
2887.437552  	0.038806 
2889.366368  	0.039075 
2891.295184  	0.039256 
2893.224000  	0.039379 
2895.152816  	0.039586 
2897.081632  	0.039614 
2899.010448  	0.040027 
2900.939264  	0.040698 
2902.868080  	0.040634 
2904.796896  	0.040469 
2906.725712  	0.040457 
2908.654528  	0.040545 
2910.583344  	0.040876 
2912.512160  	0.041337 
2914.440976  	0.041616 
2916.369792  	0.041693 
2918.298608  	0.041966 
2920.227424  	0.042462 
2922.156240  	0.043164 
2924.085056  	0.043638 
2926.013872  	0.044202 
2927.942688  	0.044776 
2929.871504  	0.045331 
2931.800320  	0.045850 
2933.729136  	0.046245 
2935.657952  	0.046599 
2937.586768  	0.047124 
2939.515584  	0.047333 
2941.444400  	0.047510 
2943.373216  	0.047934 
2945.302032  	0.048223 
2947.230848  	0.048376 
2949.159664  	0.048453 
2951.088480  	0.048654 
2953.017296  	0.049069 
2954.946112  	0.049159 
2956.874928  	0.048964 
2958.803744  	0.048888 
2960.732560  	0.048896 
2962.661376  	0.049047 
2964.590192  	0.049192 
2966.519008  	0.049344 
2968.447824  	0.049458 
2970.376640  	0.049503 
2972.305456  	0.049235 
2974.234272  	0.048884 
2976.163088  	0.048778 
2978.091904  	0.048621 
2980.020720  	0.048359 
2981.949536  	0.048217 
2983.878352  	0.048212 
2985.807168  	0.048346 
2987.735984  	0.048709 
2989.664800  	0.048674 
2991.593616  	0.047676 
2993.522432  	0.047075 
2995.451248  	0.047018 
2997.380064  	0.047058 
2999.308880  	0.046937 
3001.237696  	0.046797 
3003.166512  	0.046457 
3005.095328  	0.046027 
3007.024144  	0.045959 
3008.952960  	0.045775 
3010.881776  	0.045595 
3012.810592  	0.045564 
3014.739408  	0.045314 
3016.668224  	0.045206 
3018.597040  	0.045114 
3020.525856  	0.044844 
3022.454672  	0.044691 
3024.383488  	0.044698 
3026.312304  	0.044645 
3028.241120  	0.044560 
3030.169936  	0.044415 
3032.098752  	0.044525 
3034.027568  	0.044468 
3035.956384  	0.044355 
3037.885200  	0.044496 
3039.814016  	0.044715 
3041.742832  	0.045021 
3043.671648  	0.045234 
3045.600464  	0.045342 
3047.529280  	0.045473 
3049.458096  	0.045720 
3051.386912  	0.045787 
3053.315728  	0.045948 
3055.244544  	0.046397 
3057.173360  	0.046813 
3059.102176  	0.047081 
3061.030992  	0.047376 
3062.959808  	0.047582 
3064.888624  	0.048057 
3066.817440  	0.048609 
3068.746256  	0.048978 
3070.675072  	0.049230 
3072.603888  	0.049663 
3074.532704  	0.050155 
3076.461520  	0.050550 
3078.390336  	0.050878 
3080.319152  	0.051287 
3082.247968  	0.051766 
3084.176784  	0.052177 
3086.105600  	0.052323 
3088.034416  	0.052653 
3089.963232  	0.053141 
3091.892048  	0.053510 
3093.820864  	0.053834 
3095.749680  	0.054254 
3097.678496  	0.054407 
3099.607312  	0.054656 
3101.536128  	0.055126 
3103.464944  	0.055658 
3105.393760  	0.055982 
3107.322576  	0.056217 
3109.251392  	0.056671 
3111.180208  	0.057063 
3113.109024  	0.057170 
3115.037840  	0.057290 
3116.966656  	0.057564 
3118.895472  	0.057926 
3120.824288  	0.058281 
3122.753104  	0.058698 
3124.681920  	0.058908 
3126.610736  	0.058882 
3128.539552  	0.059126 
3130.468368  	0.059365 
3132.397184  	0.059560 
3134.326000  	0.059855 
3136.254816  	0.060098 
3138.183632  	0.060358 
3140.112448  	0.060564 
3142.041264  	0.060773 
3143.970080  	0.060990 
3145.898896  	0.061240 
3147.827712  	0.061545 
3149.756528  	0.061899 
3151.685344  	0.062331 
3153.614160  	0.062766 
3155.542976  	0.062840 
3157.471792  	0.062873 
3159.400608  	0.063267 
3161.329424  	0.063624 
3163.258240  	0.064054 
3165.187056  	0.064457 
3167.115872  	0.064687 
3169.044688  	0.064849 
3170.973504  	0.064907 
3172.902320  	0.065134 
3174.831136  	0.065556 
3176.759952  	0.065774 
3178.688768  	0.065968 
3180.617584  	0.065987 
3182.546400  	0.065884 
3184.475216  	0.066128 
3186.404032  	0.066287 
3188.332848  	0.066254 
3190.261664  	0.066408 
3192.190480  	0.066481 
3194.119296  	0.066261 
3196.048112  	0.066258 
3197.976928  	0.066669 
3199.905744  	0.066789 
3201.834560  	0.066587 
3203.763376  	0.066630 
3205.692192  	0.066708 
3207.621008  	0.066539 
3209.549824  	0.066314 
3211.478640  	0.066131 
3213.407456  	0.066023 
3215.336272  	0.066140 
3217.265088  	0.065974 
3219.193904  	0.065672 
3221.122720  	0.065466 
3223.051536  	0.065207 
3224.980352  	0.065042 
3226.909168  	0.064784 
3228.837984  	0.064597 
3230.766800  	0.064527 
3232.695616  	0.064498 
3234.624432  	0.064404 
3236.553248  	0.064184 
3238.482064  	0.064056 
3240.410880  	0.064027 
3242.339696  	0.064052 
3244.268512  	0.063979 
3246.197328  	0.063912 
3248.126144  	0.063747 
3250.054960  	0.063821 
3251.983776  	0.063912 
3253.912592  	0.064050 
3255.841408  	0.064255 
3257.770224  	0.064237 
3259.699040  	0.064186 
3261.627856  	0.064296 
3263.556672  	0.064440 
3265.485488  	0.064356 
3267.414304  	0.064567 
3269.343120  	0.064826 
3271.271936  	0.064999 
3273.200752  	0.065179 
3275.129568  	0.065293 
3277.058384  	0.065274 
3278.987200  	0.065420 
3280.916016  	0.065654 
3282.844832  	0.065665 
3284.773648  	0.065716 
3286.702464  	0.065735 
3288.631280  	0.065948 
3290.560096  	0.066146 
3292.488912  	0.066352 
3294.417728  	0.066446 
3296.346544  	0.066504 
3298.275360  	0.066554 
3300.204176  	0.066933 
3302.132992  	0.067351 
3304.061808  	0.067575 
3305.990624  	0.067858 
3307.919440  	0.067971 
3309.848256  	0.068120 
3311.777072  	0.068199 
3313.705888  	0.068445 
3315.634704  	0.068858 
3317.563520  	0.069199 
3319.492336  	0.069305 
3321.421152  	0.069353 
3323.349968  	0.069439 
3325.278784  	0.069594 
3327.207600  	0.069746 
3329.136416  	0.069828 
3331.065232  	0.069721 
3332.994048  	0.069745 
3334.922864  	0.069771 
3336.851680  	0.069635 
3338.780496  	0.069555 
3340.709312  	0.069425 
3342.638128  	0.069420 
3344.566944  	0.069283 
3346.495760  	0.069036 
3348.424576  	0.068971 
3350.353392  	0.068856 
3352.282208  	0.068518 
3354.211024  	0.068272 
3356.139840  	0.068253 
3358.068656  	0.067981 
3359.997472  	0.067592 
3361.926288  	0.067364 
3363.855104  	0.067041 
3365.783920  	0.066812 
3367.712736  	0.066762 
3369.641552  	0.066418 
3371.570368  	0.065924 
3373.499184  	0.065672 
3375.428000  	0.065428 
3377.356816  	0.065246 
3379.285632  	0.064978 
3381.214448  	0.064771 
3383.143264  	0.064509 
3385.072080  	0.064310 
3387.000896  	0.063996 
3388.929712  	0.063694 
3390.858528  	0.063343 
3392.787344  	0.062904 
3394.716160  	0.062529 
3396.644976  	0.062244 
3398.573792  	0.061992 
3400.502608  	0.061529 
3402.431424  	0.061048 
3404.360240  	0.060687 
3406.289056  	0.060359 
3408.217872  	0.060040 
3410.146688  	0.059638 
3412.075504  	0.059577 
3414.004320  	0.059551 
3415.933136  	0.059042 
3417.861952  	0.058412 
3419.790768  	0.058227 
3421.719584  	0.058034 
3423.648400  	0.057479 
3425.577216  	0.057182 
3427.506032  	0.057048 
3429.434848  	0.056604 
3431.363664  	0.056176 
3433.292480  	0.055940 
3435.221296  	0.055559 
3437.150112  	0.055236 
3439.078928  	0.054973 
3441.007744  	0.054545 
3442.936560  	0.054175 
3444.865376  	0.053619 
3446.794192  	0.052915 
3448.723008  	0.052808 
3450.651824  	0.052469 
3452.580640  	0.051861 
3454.509456  	0.051373 
3456.438272  	0.051033 
3458.367088  	0.050766 
3460.295904  	0.050355 
3462.224720  	0.049707 
3464.153536  	0.049112 
3466.082352  	0.048798 
3468.011168  	0.048525 
3469.939984  	0.048160 
3471.868800  	0.047632 
3473.797616  	0.047167 
3475.726432  	0.046709 
3477.655248  	0.046149 
3479.584064  	0.045525 
3481.512880  	0.044950 
3483.441696  	0.044385 
3485.370512  	0.043749 
3487.299328  	0.043356 
3489.228144  	0.042967 
3491.156960  	0.042308 
3493.085776  	0.041934 
3495.014592  	0.041500 
3496.943408  	0.040960 
3498.872224  	0.040420 
3500.801040  	0.039820 
3502.729856  	0.039396 
3504.658672  	0.039248 
3506.587488  	0.038677 
3508.516304  	0.038103 
3510.445120  	0.038033 
3512.373936  	0.037979 
3514.302752  	0.037594 
3516.231568  	0.037044 
3518.160384  	0.036488 
3520.089200  	0.036105 
3522.018016  	0.035489 
3523.946832  	0.035053 
3525.875648  	0.034677 
3527.804464  	0.034197 
3529.733280  	0.034135 
3531.662096  	0.034013 
3533.590912  	0.033596 
3535.519728  	0.033214 
3537.448544  	0.033088 
3539.377360  	0.032806 
3541.306176  	0.032117 
3543.234992  	0.031295 
3545.163808  	0.030850 
3547.092624  	0.030762 
3549.021440  	0.030498 
3550.950256  	0.029864 
3552.879072  	0.029753 
3554.807888  	0.029638 
3556.736704  	0.029163 
3558.665520  	0.028773 
3560.594336  	0.028426 
3562.523152  	0.027957 
3564.451968  	0.026900 
3566.380784  	0.025552 
3568.309600  	0.026139 
3570.238416  	0.026787 
3572.167232  	0.026232 
3574.096048  	0.025634 
3576.024864  	0.025136 
3577.953680  	0.024706 
3579.882496  	0.024322 
3581.811312  	0.024127 
3583.740128  	0.023481 
3585.668944  	0.021958 
3587.597760  	0.021231 
3589.526576  	0.022023 
3591.455392  	0.021538 
3593.384208  	0.020728 
3595.313024  	0.020366 
3597.241840  	0.019961 
3599.170656  	0.019175 
3601.099472  	0.018777 
3603.028288  	0.018838 
3604.957104  	0.018192 
3606.885920  	0.016718 
3608.814736  	0.016485 
3610.743552  	0.016394 
3612.672368  	0.015216 
3614.601184  	0.014900 
3616.530000  	0.014200 
3618.458816  	0.013173 
3620.387632  	0.013691 
3622.316448  	0.014016 
3624.245264  	0.013307 
3626.174080  	0.011543 
3628.102896  	0.009436 
3630.031712  	0.010852 
3631.960528  	0.011826 
3633.889344  	0.011301 
3635.818160  	0.011124 
3637.746976  	0.010934 
3639.675792  	0.011100 
3641.604608  	0.010773 
3643.533424  	0.010077 
3645.462240  	0.008240 
3647.391056  	0.005795 
3649.319872  	0.005171 
3651.248688  	0.007244 
3653.177504  	0.008640 
3655.106320  	0.007657 
3657.035136  	0.007917 
3658.963952  	0.008439 
3660.892768  	0.008131 
3662.821584  	0.007807 
3664.750400  	0.007529 
3666.679216  	0.006624 
3668.608032  	0.004441 
3670.536848  	0.004058 
3672.465664  	0.004925 
3674.394480  	0.002941 
3676.323296  	0.003910 
3678.252112  	0.005148 
3680.180928  	0.005118 
3682.109744  	0.005547 
3684.038560  	0.005375 
3685.967376  	0.004062 
3687.896192  	0.002018 
3689.825008  	0.002018 
3691.753824  	0.003283 
3693.682640  	0.004146 
3695.611456  	0.003898 
3697.540272  	0.003772 
3699.469088  	0.003208 
3701.397904  	0.002617 
3703.326720  	0.002989 
3705.255536  	0.002964 
3707.184352  	0.002061 
3709.113168  	0.000772 
3711.041984  	-0.000070 
3712.970800  	0.001427 
3714.899616  	0.002719 
3716.828432  	0.002694 
3718.757248  	0.001931 
3720.686064  	0.001212 
3722.614880  	0.001073 
3724.543696  	0.001352 
3726.472512  	0.001528 
3728.401328  	0.001767 
3730.330144  	0.000535 
3732.258960  	-0.001007 
3734.187776  	-0.001325 
3736.116592  	-0.000150 
3738.045408  	0.001260 
3739.974224  	0.001147 
3741.903040  	0.000418 
3743.831856  	-0.000307 
3745.760672  	0.001336 
3747.689488  	0.000066 
3749.618304  	-0.001709 
3751.547120  	-0.000717 
3753.475936  	0.001941 
3755.404752  	0.002214 
3757.333568  	0.001283 
3759.262384  	0.001281 
3761.191200  	0.002572 
3763.120016  	0.002760 
3765.048832  	0.002004 
3766.977648  	0.002218 
3768.906464  	0.001926 
3770.835280  	0.002523 
3772.764096  	0.003313 
3774.692912  	0.003121 
3776.621728  	0.002338 
3778.550544  	0.001544 
3780.479360  	0.002411 
3782.408176  	0.002779 
3784.336992  	0.002315 
3786.265808  	0.002757 
3788.194624  	0.003060 
3790.123440  	0.002934 
3792.052256  	0.002774 
3793.981072  	0.002320 
3795.909888  	0.001611 
3797.838704  	0.001873 
3799.767520  	0.000580 
3801.696336  	0.000067 
3803.625152  	0.001781 
3805.553968  	0.001037 
3807.482784  	0.001468 
3809.411600  	0.002961 
3811.340416  	0.003061 
3813.269232  	0.002216 
3815.198048  	0.000557 
3817.126864  	0.001163 
3819.055680  	0.000464 
3820.984496  	-0.000574 
3822.913312  	0.001830 
3824.842128  	0.002127 
3826.770944  	0.001844 
3828.699760  	0.002313 
3830.628576  	0.001755 
3832.557392  	0.001566 
3834.486208  	0.001264 
3836.415024  	0.000048 
3838.343840  	0.000004 
3840.272656  	0.000753 
3842.201472  	0.001237 
3844.130288  	0.001933 
3846.059104  	0.002765 
3847.987920  	0.002660 
3849.916736  	0.001457 
3851.845552  	-0.001180 
3853.774368  	-0.000730 
3855.703184  	0.002118 
3857.632000  	0.002499 
3859.560816  	0.002349 
3861.489632  	0.001575 
3863.418448  	0.001044 
3865.347264  	0.001612 
3867.276080  	0.001917 
3869.204896  	0.000797 
3871.133712  	0.001946 
3873.062528  	0.001935 
3874.991344  	0.002335 
3876.920160  	0.002776 
3878.848976  	0.001664 
3880.777792  	0.001519 
3882.706608  	0.002280 
3884.635424  	0.001792 
3886.564240  	0.002524 
3888.493056  	0.002799 
3890.421872  	0.001874 
3892.350688  	0.002183 
3894.279504  	0.002852 
3896.208320  	0.002635 
3898.137136  	0.001780 
3900.065952  	0.001150 
3901.994768  	0.001077 
3903.923584  	0.001458 
3905.852400  	0.002647 
3907.781216  	0.003143 
3909.710032  	0.003153 
3911.638848  	0.003136 
3913.567664  	0.003085 
3915.496480  	0.002693 
3917.425296  	0.002772 
3919.354112  	0.002934 
3921.282928  	0.002961 
3923.211744  	0.002796 
3925.140560  	0.002834 
3927.069376  	0.003064 
3928.998192  	0.002750 
3930.927008  	0.002613 
3932.855824  	0.003061 
3934.784640  	0.003437 
3936.713456  	0.003394 
3938.642272  	0.003265 
3940.571088  	0.002892 
3942.499904  	0.002964 
3944.428720  	0.003340 
3946.357536  	0.003033 
3948.286352  	0.002859 
3950.215168  	0.002906 
3952.143984  	0.002976 
3954.072800  	0.003012 
3956.001616  	0.003065 
3957.930432  	0.003273 
3959.859248  	0.003454 
3961.788064  	0.003314 
3963.716880  	0.003270 
3965.645696  	0.003245 
3967.574512  	0.003332 
3969.503328  	0.003473 
3971.432144  	0.003408 
3973.360960  	0.003293 
3975.289776  	0.003372 
3977.218592  	0.003476 
3979.147408  	0.003578 
3981.076224  	0.003417 
3983.005040  	0.003340 
3984.933856  	0.003429 
3986.862672  	0.003481 
3988.791488  	0.003349 
3990.720304  	0.003262 
3992.649120  	0.003414 
3994.577936  	0.003342 
3996.506752  	0.003273 
3998.435568  	0.003422 
4000.364384  	0.003460 