##TITLE=No Description
##DATA TYPE=INFRARED SPECTRUM
##XUNITS=1/CM
##YUNITS=Abs
399.264912  	0.611491 
401.193728  	0.616390 
403.122544  	0.605456 
405.051360  	0.574766 
406.980176  	0.565443 
408.908992  	0.562182 
410.837808  	0.577288 
412.766624  	0.582077 
414.695440  	0.575618 
416.624256  	0.554817 
418.553072  	0.547991 
420.481888  	0.547157 
422.410704  	0.547367 
424.339520  	0.548797 
426.268336  	0.557731 
428.197152  	0.545946 
430.125968  	0.544521 
432.054784  	0.541522 
433.983600  	0.530764 
435.912416  	0.518851 
437.841232  	0.526051 
439.770048  	0.525072 
441.698864  	0.523950 
443.627680  	0.521221 
445.556496  	0.520416 
447.485312  	0.518787 
449.414128  	0.519725 
451.342944  	0.515529 
453.271760  	0.517868 
455.200576  	0.516144 
457.129392  	0.514366 
459.058208  	0.512914 
460.987024  	0.514927 
462.915840  	0.514688 
464.844656  	0.515772 
466.773472  	0.514809 
468.702288  	0.520186 
470.631104  	0.519248 
472.559920  	0.516630 
474.488736  	0.509092 
476.417552  	0.511689 
478.346368  	0.508728 
480.275184  	0.507976 
482.204000  	0.506111 
484.132816  	0.506577 
486.061632  	0.505307 
487.990448  	0.505988 
489.919264  	0.505025 
491.848080  	0.503079 
493.776896  	0.500300 
495.705712  	0.500790 
497.634528  	0.498692 
499.563344  	0.498217 
501.492160  	0.496873 
503.420976  	0.497682 
505.349792  	0.497307 
507.278608  	0.497967 
509.207424  	0.497563 
511.136240  	0.498151 
513.065056  	0.496455 
514.993872  	0.498248 
516.922688  	0.498740 
518.851504  	0.501010 
520.780320  	0.500933 
522.709136  	0.500488 
524.637952  	0.497074 
526.566768  	0.497316 
528.495584  	0.496677 
530.424400  	0.494009 
532.353216  	0.488304 
534.282032  	0.482238 
536.210848  	0.478355 
538.139664  	0.476581 
540.068480  	0.472222 
541.997296  	0.468340 
543.926112  	0.462357 
545.854928  	0.459424 
547.783744  	0.455633 
549.712560  	0.451574 
551.641376  	0.447203 
553.570192  	0.444847 
555.499008  	0.441710 
557.427824  	0.439187 
559.356640  	0.435164 
561.285456  	0.431828 
563.214272  	0.427767 
565.143088  	0.424676 
567.071904  	0.421127 
569.000720  	0.417542 
570.929536  	0.413234 
572.858352  	0.409772 
574.787168  	0.406890 
576.715984  	0.403716 
578.644800  	0.399386 
580.573616  	0.396103 
582.502432  	0.390948 
584.431248  	0.387614 
586.360064  	0.386120 
588.288880  	0.384308 
590.217696  	0.381904 
592.146512  	0.379725 
594.075328  	0.377618 
596.004144  	0.375575 
597.932960  	0.373483 
599.861776  	0.372653 
601.790592  	0.372011 
603.719408  	0.371259 
605.648224  	0.369365 
607.577040  	0.368433 
609.505856  	0.368084 
611.434672  	0.368059 
613.363488  	0.365684 
615.292304  	0.363448 
617.221120  	0.360849 
619.149936  	0.359251 
621.078752  	0.356561 
623.007568  	0.354147 
624.936384  	0.352692 
626.865200  	0.352265 
628.794016  	0.350714 
630.722832  	0.348598 
632.651648  	0.347806 
634.580464  	0.347765 
636.509280  	0.347898 
638.438096  	0.347809 
640.366912  	0.347259 
642.295728  	0.345894 
644.224544  	0.343280 
646.153360  	0.340392 
648.082176  	0.337110 
650.010992  	0.334188 
651.939808  	0.330060 
653.868624  	0.326679 
655.797440  	0.323137 
657.726256  	0.319759 
659.655072  	0.315688 
661.583888  	0.312189 
663.512704  	0.308534 
665.441520  	0.304874 
667.370336  	0.300683 
669.299152  	0.296934 
671.227968  	0.294898 
673.156784  	0.292367 
675.085600  	0.289949 
677.014416  	0.288170 
678.943232  	0.286710 
680.872048  	0.285087 
682.800864  	0.283216 
684.729680  	0.281847 
686.658496  	0.279963 
688.587312  	0.277899 
690.516128  	0.276328 
692.444944  	0.275028 
694.373760  	0.273091 
696.302576  	0.271902 
698.231392  	0.269533 
700.160208  	0.266837 
702.089024  	0.264418 
704.017840  	0.262833 
705.946656  	0.260114 
707.875472  	0.257433 
709.804288  	0.255170 
711.733104  	0.253552 
713.661920  	0.252303 
715.590736  	0.251594 
717.519552  	0.251069 
719.448368  	0.251733 
721.377184  	0.253111 
723.306000  	0.253814 
725.234816  	0.253673 
727.163632  	0.252025 
729.092448  	0.249541 
731.021264  	0.246867 
732.950080  	0.244062 
734.878896  	0.241616 
736.807712  	0.238851 
738.736528  	0.236847 
740.665344  	0.235251 
742.594160  	0.234185 
744.522976  	0.232683 
746.451792  	0.231570 
748.380608  	0.230608 
750.309424  	0.229780 
752.238240  	0.229249 
754.167056  	0.229060 
756.095872  	0.228314 
758.024688  	0.227331 
759.953504  	0.226896 
761.882320  	0.226858 
763.811136  	0.226987 
765.739952  	0.226687 
767.668768  	0.225810 
769.597584  	0.224406 
771.526400  	0.224166 
773.455216  	0.226126 
775.384032  	0.228783 
777.312848  	0.232680 
779.241664  	0.236737 
781.170480  	0.237837 
783.099296  	0.234822 
785.028112  	0.229806 
786.956928  	0.223544 
788.885744  	0.218356 
790.814560  	0.214826 
792.743376  	0.212371 
794.672192  	0.210507 
796.601008  	0.209966 
798.529824  	0.208711 
800.458640  	0.205378 
802.387456  	0.201767 
804.316272  	0.200253 
806.245088  	0.199600 
808.173904  	0.199228 
810.102720  	0.199217 
812.031536  	0.199390 
813.960352  	0.199446 
815.889168  	0.199499 
817.817984  	0.199582 
819.746800  	0.199310 
821.675616  	0.198934 
823.604432  	0.198529 
825.533248  	0.197865 
827.462064  	0.196787 
829.390880  	0.195539 
831.319696  	0.194137 
833.248512  	0.192559 
835.177328  	0.191139 
837.106144  	0.188954 
839.034960  	0.186182 
840.963776  	0.183420 
842.892592  	0.180871 
844.821408  	0.177795 
846.750224  	0.175122 
848.679040  	0.173183 
850.607856  	0.171529 
852.536672  	0.170021 
854.465488  	0.168443 
856.394304  	0.167096 
858.323120  	0.166147 
860.251936  	0.164939 
862.180752  	0.163243 
864.109568  	0.161534 
866.038384  	0.160094 
867.967200  	0.158828 
869.896016  	0.157679 
871.824832  	0.156263 
873.753648  	0.155464 
875.682464  	0.155395 
877.611280  	0.156285 
879.540096  	0.157219 
881.468912  	0.157829 
883.397728  	0.158222 
885.326544  	0.158128 
887.255360  	0.157810 
889.184176  	0.157306 
891.112992  	0.156632 
893.041808  	0.155124 
894.970624  	0.152849 
896.899440  	0.149983 
898.828256  	0.146375 
900.757072  	0.142761 
902.685888  	0.139593 
904.614704  	0.137563 
906.543520  	0.136820 
908.472336  	0.137418 
910.401152  	0.139048 
912.329968  	0.141579 
914.258784  	0.144302 
916.187600  	0.146662 
918.116416  	0.148298 
920.045232  	0.149090 
921.974048  	0.148610 
923.902864  	0.147766 
925.831680  	0.146680 
927.760496  	0.145586 
929.689312  	0.144612 
931.618128  	0.144334 
933.546944  	0.144542 
935.475760  	0.144745 
937.404576  	0.144881 
939.333392  	0.145570 
941.262208  	0.146921 
943.191024  	0.149163 
945.119840  	0.152779 
947.048656  	0.157218 
948.977472  	0.162754 
950.906288  	0.169396 
952.835104  	0.176644 
954.763920  	0.184035 
956.692736  	0.190816 
958.621552  	0.196550 
960.550368  	0.200165 
962.479184  	0.201584 
964.408000  	0.200172 
966.336816  	0.196439 
968.265632  	0.190008 
970.194448  	0.181910 
972.123264  	0.172692 
974.052080  	0.162961 
975.980896  	0.153341 
977.909712  	0.144311 
979.838528  	0.136820 
981.767344  	0.130712 
983.696160  	0.126485 
985.624976  	0.124420 
987.553792  	0.124816 
989.482608  	0.127122 
991.411424  	0.131187 
993.340240  	0.136842 
995.269056  	0.143863 
997.197872  	0.151514 
999.126688  	0.158913 
1001.055504  	0.166555 
1002.984320  	0.174038 
1004.913136  	0.181292 
1006.841952  	0.187488 
1008.770768  	0.192860 
1010.699584  	0.197230 
1012.628400  	0.200303 
1014.557216  	0.201912 
1016.486032  	0.202965 
1018.414848  	0.203664 
1020.343664  	0.204137 
1022.272480  	0.204414 
1024.201296  	0.204827 
1026.130112  	0.205977 
1028.058928  	0.207456 
1029.987744  	0.207756 
1031.916560  	0.209795 
1033.845376  	0.213424 
1035.774192  	0.217933 
1037.703008  	0.223031 
1039.631824  	0.229133 
1041.560640  	0.237154 
1043.489456  	0.247432 
1045.418272  	0.259312 
1047.347088  	0.273421 
1049.275904  	0.288449 
1051.204720  	0.302793 
1053.133536  	0.314089 
1055.062352  	0.323483 
1056.991168  	0.329443 
1058.919984  	0.331787 
1060.848800  	0.330898 
1062.777616  	0.330141 
1064.706432  	0.328552 
1066.635248  	0.324925 
1068.564064  	0.318016 
1070.492880  	0.311415 
1072.421696  	0.305148 
1074.350512  	0.299540 
1076.279328  	0.294505 
1078.208144  	0.290839 
1080.136960  	0.287278 
1082.065776  	0.283586 
1083.994592  	0.279260 
1085.923408  	0.275204 
1087.852224  	0.270365 
1089.781040  	0.265460 
1091.709856  	0.258360 
1093.638672  	0.250151 
1095.567488  	0.241060 
1097.496304  	0.231786 
1099.425120  	0.221715 
1101.353936  	0.211363 
1103.282752  	0.200880 
1105.211568  	0.190403 
1107.140384  	0.179786 
1109.069200  	0.169276 
1110.998016  	0.159363 
1112.926832  	0.150011 
1114.855648  	0.141284 
1116.784464  	0.133005 
1118.713280  	0.125381 
1120.642096  	0.118458 
1122.570912  	0.111776 
1124.499728  	0.105575 
1126.428544  	0.099797 
1128.357360  	0.094293 
1130.286176  	0.089166 
1132.214992  	0.084875 
1134.143808  	0.081274 
1136.072624  	0.078098 
1138.001440  	0.074827 
1139.930256  	0.071628 
1141.859072  	0.068771 
1143.787888  	0.066004 
1145.716704  	0.063813 
1147.645520  	0.062057 
1149.574336  	0.060817 
1151.503152  	0.059906 
1153.431968  	0.059674 
1155.360784  	0.059688 
1157.289600  	0.060079 
1159.218416  	0.060819 
1161.147232  	0.061971 
1163.076048  	0.063297 
1165.004864  	0.064995 
1166.933680  	0.066765 
1168.862496  	0.068903 
1170.791312  	0.071429 
1172.720128  	0.073792 
1174.648944  	0.076138 
1176.577760  	0.078701 
1178.506576  	0.081393 
1180.435392  	0.084027 
1182.364208  	0.086627 
1184.293024  	0.089347 
1186.221840  	0.092327 
1188.150656  	0.095606 
1190.079472  	0.099401 
1192.008288  	0.103839 
1193.937104  	0.108916 
1195.865920  	0.114961 
1197.794736  	0.121324 
1199.723552  	0.127979 
1201.652368  	0.134868 
1203.581184  	0.142376 
1205.510000  	0.149737 
1207.438816  	0.156860 
1209.367632  	0.164153 
1211.296448  	0.170874 
1213.225264  	0.177113 
1215.154080  	0.182295 
1217.082896  	0.186612 
1219.011712  	0.190042 
1220.940528  	0.193354 
1222.869344  	0.195763 
1224.798160  	0.197577 
1226.726976  	0.198727 
1228.655792  	0.199541 
1230.584608  	0.199421 
1232.513424  	0.198386 
1234.442240  	0.195958 
1236.371056  	0.192869 
1238.299872  	0.188849 
1240.228688  	0.184596 
1242.157504  	0.179239 
1244.086320  	0.172631 
1246.015136  	0.165921 
1247.943952  	0.159530 
1249.872768  	0.152786 
1251.801584  	0.145742 
1253.730400  	0.138802 
1255.659216  	0.132250 
1257.588032  	0.125917 
1259.516848  	0.119904 
1261.445664  	0.114117 
1263.374480  	0.108796 
1265.303296  	0.104055 
1267.232112  	0.100132 
1269.160928  	0.096999 
1271.089744  	0.094894 
1273.018560  	0.093828 
1274.947376  	0.093212 
1276.876192  	0.092744 
1278.805008  	0.091910 
1280.733824  	0.090087 
1282.662640  	0.087068 
1284.591456  	0.083215 
1286.520272  	0.079324 
1288.449088  	0.076213 
1290.377904  	0.073796 
1292.306720  	0.071867 
1294.235536  	0.069630 
1296.164352  	0.066539 
1298.093168  	0.062998 
1300.021984  	0.059466 
1301.950800  	0.056163 
1303.879616  	0.053308 
1305.808432  	0.050995 
1307.737248  	0.049222 
1309.666064  	0.047717 
1311.594880  	0.046765 
1313.523696  	0.046352 
1315.452512  	0.046192 
1317.381328  	0.046319 
1319.310144  	0.046931 
1321.238960  	0.047761 
1323.167776  	0.048726 
1325.096592  	0.049399 
1327.025408  	0.049635 
1328.954224  	0.049335 
1330.883040  	0.048690 
1332.811856  	0.047784 
1334.740672  	0.046866 
1336.669488  	0.045757 
1338.598304  	0.044924 
1340.527120  	0.044620 
1342.455936  	0.044399 
1344.384752  	0.044405 
1346.313568  	0.044934 
1348.242384  	0.045998 
1350.171200  	0.047748 
1352.100016  	0.049768 
1354.028832  	0.051752 
1355.957648  	0.053942 
1357.886464  	0.055974 
1359.815280  	0.057598 
1361.744096  	0.059265 
1363.672912  	0.061575 
1365.601728  	0.063107 
1367.530544  	0.063818 
1369.459360  	0.064383 
1371.388176  	0.063919 
1373.316992  	0.062783 
1375.245808  	0.061913 
1377.174624  	0.060734 
1379.103440  	0.059189 
1381.032256  	0.057723 
1382.961072  	0.056480 
1384.889888  	0.055123 
1386.818704  	0.053767 
1388.747520  	0.052824 
1390.676336  	0.051798 
1392.605152  	0.051086 
1394.533968  	0.050618 
1396.462784  	0.049962 
1398.391600  	0.049810 
1400.320416  	0.051442 
1402.249232  	0.052395 
1404.178048  	0.053600 
1406.106864  	0.055428 
1408.035680  	0.057022 
1409.964496  	0.058443 
1411.893312  	0.060207 
1413.822128  	0.061381 
1415.750944  	0.061758 
1417.679760  	0.061280 
1419.608576  	0.061835 
1421.537392  	0.061641 
1423.466208  	0.060184 
1425.395024  	0.058843 
1427.323840  	0.056775 
1429.252656  	0.054671 
1431.181472  	0.053498 
1433.110288  	0.052843 
1435.039104  	0.051982 
1436.967920  	0.053278 
1438.896736  	0.054720 
1440.825552  	0.054821 
1442.754368  	0.055241 
1444.683184  	0.055044 
1446.612000  	0.054726 
1448.540816  	0.055474 
1450.469632  	0.055922 
1452.398448  	0.055608 
1454.327264  	0.054527 
1456.256080  	0.052977 
1458.184896  	0.054918 
1460.113712  	0.056203 
1462.042528  	0.056123 
1463.971344  	0.055869 
1465.900160  	0.058408 
1467.828976  	0.060680 
1469.757792  	0.062154 
1471.686608  	0.064139 
1473.615424  	0.070021 
1475.544240  	0.074095 
1477.473056  	0.077389 
1479.401872  	0.078561 
1481.330688  	0.078958 
1483.259504  	0.078859 
1485.188320  	0.077526 
1487.117136  	0.074978 
1489.045952  	0.072546 
1490.974768  	0.070605 
1492.903584  	0.067792 
1494.832400  	0.063349 
1496.761216  	0.059318 
1498.690032  	0.056560 
1500.618848  	0.054530 
1502.547664  	0.051647 
1504.476480  	0.047334 
1506.405296  	0.043950 
1508.334112  	0.045892 
1510.262928  	0.045419 
1512.191744  	0.044383 
1514.120560  	0.042976 
1516.049376  	0.041879 
1517.978192  	0.042439 
1519.907008  	0.042363 
1521.835824  	0.045161 
1523.764640  	0.048607 
1525.693456  	0.050926 
1527.622272  	0.053728 
1529.551088  	0.055197 
1531.479904  	0.054782 
1533.408720  	0.054100 
1535.337536  	0.053968 
1537.266352  	0.050244 
1539.195168  	0.045126 
1541.123984  	0.044124 
1543.052800  	0.044749 
1544.981616  	0.044556 
1546.910432  	0.044107 
1548.839248  	0.042758 
1550.768064  	0.042991 
1552.696880  	0.042491 
1554.625696  	0.042654 
1556.554512  	0.040883 
1558.483328  	0.040005 
1560.412144  	0.049103 
1562.340960  	0.052029 
1564.269776  	0.053608 
1566.198592  	0.057254 
1568.127408  	0.059535 
1570.056224  	0.065172 
1571.985040  	0.070169 
1573.913856  	0.071397 
1575.842672  	0.072680 
1577.771488  	0.076521 
1579.700304  	0.076759 
1581.629120  	0.076537 
1583.557936  	0.076748 
1585.486752  	0.078306 
1587.415568  	0.080761 
1589.344384  	0.084812 
1591.273200  	0.089590 
1593.202016  	0.095195 
1595.130832  	0.100602 
1597.059648  	0.106016 
1598.988464  	0.109950 
1600.917280  	0.113087 
1602.846096  	0.114815 
1604.774912  	0.115824 
1606.703728  	0.115296 
1608.632544  	0.114775 
1610.561360  	0.114095 
1612.490176  	0.113670 
1614.418992  	0.112119 
1616.347808  	0.113011 
1618.276624  	0.117600 
1620.205440  	0.120957 
1622.134256  	0.124025 
1624.063072  	0.131718 
1625.991888  	0.138250 
1627.920704  	0.145422 
1629.849520  	0.153802 
1631.778336  	0.160340 
1633.707152  	0.164159 
1635.635968  	0.171370 
1637.564784  	0.180861 
1639.493600  	0.185704 
1641.422416  	0.189223 
1643.351232  	0.191029 
1645.280048  	0.190537 
1647.208864  	0.192337 
1649.137680  	0.193726 
1651.066496  	0.190555 
1652.995312  	0.187395 
1654.924128  	0.191378 
1656.852944  	0.190233 
1658.781760  	0.188205 
1660.710576  	0.185486 
1662.639392  	0.183711 
1664.568208  	0.183085 
1666.497024  	0.180726 
1668.425840  	0.177525 
1670.354656  	0.176706 
1672.283472  	0.176028 
1674.212288  	0.174488 
1676.141104  	0.175497 
1678.069920  	0.176030 
1679.998736  	0.175513 
1681.927552  	0.173991 
1683.856368  	0.172860 
1685.785184  	0.176935 
1687.714000  	0.176113 
1689.642816  	0.174524 
1691.571632  	0.172683 
1693.500448  	0.169080 
1695.429264  	0.164350 
1697.358080  	0.160810 
1699.286896  	0.155899 
1701.215712  	0.152990 
1703.144528  	0.149041 
1705.073344  	0.143428 
1707.002160  	0.138577 
1708.930976  	0.133881 
1710.859792  	0.128032 
1712.788608  	0.121082 
1714.717424  	0.113610 
1716.646240  	0.106105 
1718.575056  	0.100209 
1720.503872  	0.094636 
1722.432688  	0.088466 
1724.361504  	0.081755 
1726.290320  	0.075671 
1728.219136  	0.069249 
1730.147952  	0.063205 
1732.076768  	0.056894 
1734.005584  	0.051687 
1735.934400  	0.047932 
1737.863216  	0.043419 
1739.792032  	0.038652 
1741.720848  	0.035524 
1743.649664  	0.032255 
1745.578480  	0.029189 
1747.507296  	0.025812 
1749.436112  	0.023915 
1751.364928  	0.023434 
1753.293744  	0.022997 
1755.222560  	0.020943 
1757.151376  	0.020146 
1759.080192  	0.019003 
1761.009008  	0.018187 
1762.937824  	0.018308 
1764.866640  	0.017885 
1766.795456  	0.016429 
1768.724272  	0.016031 
1770.653088  	0.014122 
1772.581904  	0.014437 
1774.510720  	0.015512 
1776.439536  	0.015627 
1778.368352  	0.015149 
1780.297168  	0.015058 
1782.225984  	0.014997 
1784.154800  	0.014705 
1786.083616  	0.014805 
1788.012432  	0.014312 
1789.941248  	0.012852 
1791.870064  	0.012670 
1793.798880  	0.013722 
1795.727696  	0.013818 
1797.656512  	0.013128 
1799.585328  	0.012679 
1801.514144  	0.012774 
1803.442960  	0.012927 
1805.371776  	0.012671 
1807.300592  	0.012505 
1809.229408  	0.011948 
1811.158224  	0.012084 
1813.087040  	0.012154 
1815.015856  	0.011844 
1816.944672  	0.011604 
1818.873488  	0.012105 
1820.802304  	0.012204 
1822.731120  	0.011787 
1824.659936  	0.011346 
1826.588752  	0.011783 
1828.517568  	0.010813 
1830.446384  	0.011533 
1832.375200  	0.012168 
1834.304016  	0.011893 
1836.232832  	0.011622 
1838.161648  	0.011956 
1840.090464  	0.011777 
1842.019280  	0.010675 
1843.948096  	0.010270 
1845.876912  	0.011592 
1847.805728  	0.011761 
1849.734544  	0.011994 
1851.663360  	0.011747 
1853.592176  	0.011966 
1855.520992  	0.011799 
1857.449808  	0.012056 
1859.378624  	0.011983 
1861.307440  	0.011950 
1863.236256  	0.011418 
1865.165072  	0.011110 
1867.093888  	0.010542 
1869.022704  	0.011275 
1870.951520  	0.011932 
1872.880336  	0.011732 
1874.809152  	0.011328 
1876.737968  	0.011463 
1878.666784  	0.011196 
1880.595600  	0.011283 
1882.524416  	0.011212 
1884.453232  	0.011305 
1886.382048  	0.011056 
1888.310864  	0.010947 
1890.239680  	0.011572 
1892.168496  	0.012034 
1894.097312  	0.011291 
1896.026128  	0.011361 
1897.954944  	0.011379 
1899.883760  	0.011135 
1901.812576  	0.010838 
1903.741392  	0.011312 
1905.670208  	0.010972 
1907.599024  	0.010826 
1909.527840  	0.010882 
1911.456656  	0.011118 
1913.385472  	0.011172 
1915.314288  	0.011312 
1917.243104  	0.011002 
1919.171920  	0.011356 
1921.100736  	0.010909 
1923.029552  	0.011265 
1924.958368  	0.011109 
1926.887184  	0.011149 
1928.816000  	0.010860 
1930.744816  	0.010640 
1932.673632  	0.010331 
1934.602448  	0.010821 
1936.531264  	0.011027 
1938.460080  	0.010749 
1940.388896  	0.009791 
1942.317712  	0.010193 
1944.246528  	0.010649 
1946.175344  	0.011266 
1948.104160  	0.010930 
1950.032976  	0.010731 
1951.961792  	0.010859 
1953.890608  	0.011321 
1955.819424  	0.010037 
1957.748240  	0.009764 
1959.677056  	0.010287 
1961.605872  	0.010173 
1963.534688  	0.009063 
1965.463504  	0.010289 
1967.392320  	0.010000 
1969.321136  	0.008737 
1971.249952  	0.008892 
1973.178768  	0.010532 
1975.107584  	0.009465 
1977.036400  	0.009699 
1978.965216  	0.012590 
1980.894032  	0.013153 
1982.822848  	0.011087 
1984.751664  	0.010969 
1986.680480  	0.011084 
1988.609296  	0.010767 
1990.538112  	0.010092 
1992.466928  	0.011531 
1994.395744  	0.011515 
1996.324560  	0.011252 
1998.253376  	0.010339 
2000.182192  	0.010028 
2002.111008  	0.010073 
2004.039824  	0.010397 
2005.968640  	0.010203 
2007.897456  	0.011463 
2009.826272  	0.011456 
2011.755088  	0.009661 
2013.683904  	0.009118 
2015.612720  	0.010208 
2017.541536  	0.009672 
2019.470352  	0.010193 
2021.399168  	0.009771 
2023.327984  	0.010648 
2025.256800  	0.010584 
2027.185616  	0.009963 
2029.114432  	0.009682 
2031.043248  	0.011750 
2032.972064  	0.011628 
2034.900880  	0.011846 
2036.829696  	0.012059 
2038.758512  	0.012197 
2040.687328  	0.011921 
2042.616144  	0.012031 
2044.544960  	0.011946 
2046.473776  	0.012604 
2048.402592  	0.012457 
2050.331408  	0.013321 
2052.260224  	0.012644 
2054.189040  	0.012075 
2056.117856  	0.011691 
2058.046672  	0.012006 
2059.975488  	0.011705 
2061.904304  	0.011711 
2063.833120  	0.012736 
2065.761936  	0.013281 
2067.690752  	0.012746 
2069.619568  	0.012470 
2071.548384  	0.011783 
2073.477200  	0.011739 
2075.406016  	0.012014 
2077.334832  	0.012502 
2079.263648  	0.012142 
2081.192464  	0.011995 
2083.121280  	0.012523 
2085.050096  	0.012475 
2086.978912  	0.012271 
2088.907728  	0.012258 
2090.836544  	0.011864 
2092.765360  	0.011559 
2094.694176  	0.011443 
2096.622992  	0.011470 
2098.551808  	0.011133 
2100.480624  	0.011253 
2102.409440  	0.011358 
2104.338256  	0.012217 
2106.267072  	0.012192 
2108.195888  	0.011998 
2110.124704  	0.012292 
2112.053520  	0.012799 
2113.982336  	0.012681 
2115.911152  	0.012820 
2117.839968  	0.012201 
2119.768784  	0.011697 
2121.697600  	0.011295 
2123.626416  	0.010913 
2125.555232  	0.010843 
2127.484048  	0.011528 
2129.412864  	0.011175 
2131.341680  	0.010188 
2133.270496  	0.010211 
2135.199312  	0.010903 
2137.128128  	0.011254 
2139.056944  	0.011131 
2140.985760  	0.009952 
2142.914576  	0.010998 
2144.843392  	0.010820 
2146.772208  	0.010722 
2148.701024  	0.010739 
2150.629840  	0.011339 
2152.558656  	0.010130 
2154.487472  	0.008785 
2156.416288  	0.008521 
2158.345104  	0.011165 
2160.273920  	0.013334 
2162.202736  	0.014059 
2164.131552  	0.013479 
2166.060368  	0.013996 
2167.989184  	0.012441 
2169.918000  	0.011025 
2171.846816  	0.011034 
2173.775632  	0.011661 
2175.704448  	0.012261 
2177.633264  	0.013074 
2179.562080  	0.012990 
2181.490896  	0.012714 
2183.419712  	0.012492 
2185.348528  	0.013266 
2187.277344  	0.012759 
2189.206160  	0.012251 
2191.134976  	0.013018 
2193.063792  	0.014463 
2194.992608  	0.014735 
2196.921424  	0.013766 
2198.850240  	0.013896 
2200.779056  	0.014103 
2202.707872  	0.013425 
2204.636688  	0.013523 
2206.565504  	0.013511 
2208.494320  	0.013387 
2210.423136  	0.012345 
2212.351952  	0.013035 
2214.280768  	0.013985 
2216.209584  	0.013483 
2218.138400  	0.012588 
2220.067216  	0.012819 
2221.996032  	0.013364 
2223.924848  	0.013010 
2225.853664  	0.012983 
2227.782480  	0.013243 
2229.711296  	0.013424 
2231.640112  	0.013467 
2233.568928  	0.013209 
2235.497744  	0.013444 
2237.426560  	0.013423 
2239.355376  	0.013832 
2241.284192  	0.013557 
2243.213008  	0.013100 
2245.141824  	0.013153 
2247.070640  	0.012990 
2248.999456  	0.012715 
2250.928272  	0.013042 
2252.857088  	0.012899 
2254.785904  	0.012876 
2256.714720  	0.013534 
2258.643536  	0.013970 
2260.572352  	0.013587 
2262.501168  	0.013458 
2264.429984  	0.013551 
2266.358800  	0.013957 
2268.287616  	0.013842 
2270.216432  	0.013760 
2272.145248  	0.013528 
2274.074064  	0.013513 
2276.002880  	0.013448 
2277.931696  	0.013889 
2279.860512  	0.014320 
2281.789328  	0.014636 
2283.718144  	0.014523 
2285.646960  	0.014682 
2287.575776  	0.014730 
2289.504592  	0.014423 
2291.433408  	0.014158 
2293.362224  	0.014062 
2295.291040  	0.014078 
2297.219856  	0.014330 
2299.148672  	0.014420 
2301.077488  	0.014351 
2303.006304  	0.014331 
2304.935120  	0.014089 
2306.863936  	0.013793 
2308.792752  	0.013843 
2310.721568  	0.014027 
2312.650384  	0.013921 
2314.579200  	0.013456 
2316.508016  	0.012978 
2318.436832  	0.012527 
2320.365648  	0.012389 
2322.294464  	0.012275 
2324.223280  	0.011955 
2326.152096  	0.010358 
2328.080912  	0.009167 
2330.009728  	0.008652 
2331.938544  	0.008271 
2333.867360  	0.007730 
2335.796176  	0.007434 
2337.724992  	0.007268 
2339.653808  	0.007126 
2341.582624  	0.007201 
2343.511440  	0.008740 
2345.440256  	0.010402 
2347.369072  	0.011571 
2349.297888  	0.010653 
2351.226704  	0.008551 
2353.155520  	0.007139 
2355.084336  	0.005597 
2357.013152  	0.004235 
2358.941968  	0.004117 
2360.870784  	0.004354 
2362.799600  	0.005069 
2364.728416  	0.005744 
2366.657232  	0.006535 
2368.586048  	0.007561 
2370.514864  	0.009519 
2372.443680  	0.010903 
2374.372496  	0.012074 
2376.301312  	0.013270 
2378.230128  	0.014366 
2380.158944  	0.014658 
2382.087760  	0.014757 
2384.016576  	0.014752 
2385.945392  	0.014756 
2387.874208  	0.014461 
2389.803024  	0.014219 
2391.731840  	0.014194 
2393.660656  	0.014236 
2395.589472  	0.014295 
2397.518288  	0.014383 
2399.447104  	0.014289 
2401.375920  	0.013973 
2403.304736  	0.014128 
2405.233552  	0.014524 
2407.162368  	0.014694 
2409.091184  	0.014627 
2411.020000  	0.014690 
2412.948816  	0.014973 
2414.877632  	0.014943 
2416.806448  	0.015100 
2418.735264  	0.015298 
2420.664080  	0.015082 
2422.592896  	0.014868 
2424.521712  	0.014949 
2426.450528  	0.015028 
2428.379344  	0.014994 
2430.308160  	0.015084 
2432.236976  	0.015189 
2434.165792  	0.015386 
2436.094608  	0.015847 
2438.023424  	0.016057 
2439.952240  	0.016016 
2441.881056  	0.016012 
2443.809872  	0.015937 
2445.738688  	0.015853 
2447.667504  	0.016005 
2449.596320  	0.016214 
2451.525136  	0.016343 
2453.453952  	0.016271 
2455.382768  	0.016413 
2457.311584  	0.016476 
2459.240400  	0.016360 
2461.169216  	0.016234 
2463.098032  	0.016338 
2465.026848  	0.016409 
2466.955664  	0.016462 
2468.884480  	0.016230 
2470.813296  	0.016294 
2472.742112  	0.016493 
2474.670928  	0.016424 
2476.599744  	0.016386 
2478.528560  	0.016625 
2480.457376  	0.016835 
2482.386192  	0.016782 
2484.315008  	0.016938 
2486.243824  	0.017057 
2488.172640  	0.016928 
2490.101456  	0.017056 
2492.030272  	0.017308 
2493.959088  	0.017110 
2495.887904  	0.016805 
2497.816720  	0.016868 
2499.745536  	0.016971 
2501.674352  	0.017123 
2503.603168  	0.017136 
2505.531984  	0.017178 
2507.460800  	0.017237 
2509.389616  	0.017251 
2511.318432  	0.017148 
2513.247248  	0.017314 
2515.176064  	0.017425 
2517.104880  	0.017750 
2519.033696  	0.017910 
2520.962512  	0.017925 
2522.891328  	0.018097 
2524.820144  	0.018051 
2526.748960  	0.018025 
2528.677776  	0.018192 
2530.606592  	0.018135 
2532.535408  	0.018128 
2534.464224  	0.018328 
2536.393040  	0.018474 
2538.321856  	0.018335 
2540.250672  	0.018367 
2542.179488  	0.018371 
2544.108304  	0.018486 
2546.037120  	0.018581 
2547.965936  	0.019029 
2549.894752  	0.019208 
2551.823568  	0.019139 
2553.752384  	0.019183 
2555.681200  	0.019195 
2557.610016  	0.019295 
2559.538832  	0.019341 
2561.467648  	0.019333 
2563.396464  	0.019428 
2565.325280  	0.019753 
2567.254096  	0.019953 
2569.182912  	0.019655 
2571.111728  	0.019481 
2573.040544  	0.019376 
2574.969360  	0.019349 
2576.898176  	0.019716 
2578.826992  	0.020200 
2580.755808  	0.020261 
2582.684624  	0.020344 
2584.613440  	0.020345 
2586.542256  	0.020413 
2588.471072  	0.020484 
2590.399888  	0.020518 
2592.328704  	0.020658 
2594.257520  	0.020914 
2596.186336  	0.021183 
2598.115152  	0.021211 
2600.043968  	0.021073 
2601.972784  	0.021075 
2603.901600  	0.021342 
2605.830416  	0.021577 
2607.759232  	0.021588 
2609.688048  	0.021737 
2611.616864  	0.021978 
2613.545680  	0.022121 
2615.474496  	0.022161 
2617.403312  	0.022228 
2619.332128  	0.022408 
2621.260944  	0.022482 
2623.189760  	0.022402 
2625.118576  	0.022547 
2627.047392  	0.022779 
2628.976208  	0.023157 
2630.905024  	0.023262 
2632.833840  	0.023364 
2634.762656  	0.023544 
2636.691472  	0.023615 
2638.620288  	0.023673 
2640.549104  	0.023751 
2642.477920  	0.023875 
2644.406736  	0.023943 
2646.335552  	0.024231 
2648.264368  	0.024589 
2650.193184  	0.024762 
2652.122000  	0.024826 
2654.050816  	0.024914 
2655.979632  	0.024911 
2657.908448  	0.024959 
2659.837264  	0.025029 
2661.766080  	0.025010 
2663.694896  	0.025087 
2665.623712  	0.025002 
2667.552528  	0.024907 
2669.481344  	0.025166 
2671.410160  	0.025490 
2673.338976  	0.025572 
2675.267792  	0.025670 
2677.196608  	0.025791 
2679.125424  	0.025941 
2681.054240  	0.026069 
2682.983056  	0.026186 
2684.911872  	0.026337 
2686.840688  	0.026497 
2688.769504  	0.026660 
2690.698320  	0.026731 
2692.627136  	0.026823 
2694.555952  	0.026816 
2696.484768  	0.026842 
2698.413584  	0.027000 
2700.342400  	0.027103 
2702.271216  	0.027400 
2704.200032  	0.027727 
2706.128848  	0.027879 
2708.057664  	0.027926 
2709.986480  	0.027934 
2711.915296  	0.028067 
2713.844112  	0.028227 
2715.772928  	0.028335 
2717.701744  	0.028577 
2719.630560  	0.028722 
2721.559376  	0.028752 
2723.488192  	0.028918 
2725.417008  	0.029186 
2727.345824  	0.029317 
2729.274640  	0.029344 
2731.203456  	0.029373 
2733.132272  	0.029538 
2735.061088  	0.029800 
2736.989904  	0.029920 
2738.918720  	0.030028 
2740.847536  	0.030072 
2742.776352  	0.030259 
2744.705168  	0.030399 
2746.633984  	0.030526 
2748.562800  	0.030702 
2750.491616  	0.030801 
2752.420432  	0.030846 
2754.349248  	0.030924 
2756.278064  	0.030981 
2758.206880  	0.031065 
2760.135696  	0.031303 
2762.064512  	0.031335 
2763.993328  	0.031255 
2765.922144  	0.031347 
2767.850960  	0.031467 
2769.779776  	0.031530 
2771.708592  	0.031536 
2773.637408  	0.031587 
2775.566224  	0.031736 
2777.495040  	0.031837 
2779.423856  	0.031950 
2781.352672  	0.032113 
2783.281488  	0.032223 
2785.210304  	0.032285 
2787.139120  	0.032480 
2789.067936  	0.032661 
2790.996752  	0.032676 
2792.925568  	0.032765 
2794.854384  	0.032887 
2796.783200  	0.033031 
2798.712016  	0.033064 
2800.640832  	0.033076 
2802.569648  	0.033305 
2804.498464  	0.033521 
2806.427280  	0.033640 
2808.356096  	0.033732 
2810.284912  	0.033954 
2812.213728  	0.034073 
2814.142544  	0.034162 
2816.071360  	0.034351 
2818.000176  	0.034380 
2819.928992  	0.034274 
2821.857808  	0.034388 
2823.786624  	0.034589 
2825.715440  	0.034632 
2827.644256  	0.034601 
2829.573072  	0.034722 
2831.501888  	0.034768 
2833.430704  	0.034704 
2835.359520  	0.034713 
2837.288336  	0.034679 
2839.217152  	0.034658 
2841.145968  	0.034669 
2843.074784  	0.034751 
2845.003600  	0.034958 
2846.932416  	0.035250 
2848.861232  	0.035457 
2850.790048  	0.035607 
2852.718864  	0.035792 
2854.647680  	0.036051 
2856.576496  	0.036391 
2858.505312  	0.036710 
2860.434128  	0.036974 
2862.362944  	0.037278 
2864.291760  	0.037677 
2866.220576  	0.038061 
2868.149392  	0.038629 
2870.078208  	0.039198 
2872.007024  	0.039693 
2873.935840  	0.040250 
2875.864656  	0.040895 
2877.793472  	0.041728 
2879.722288  	0.042534 
2881.651104  	0.043312 
2883.579920  	0.043899 
2885.508736  	0.044295 
2887.437552  	0.044489 
2889.366368  	0.044575 
2891.295184  	0.044908 
2893.224000  	0.045309 
2895.152816  	0.045663 
2897.081632  	0.045577 
2899.010448  	0.045864 
2900.939264  	0.046568 
2902.868080  	0.046504 
2904.796896  	0.046267 
2906.725712  	0.046315 
2908.654528  	0.046375 
2910.583344  	0.046715 
2912.512160  	0.047189 
2914.440976  	0.047392 
2916.369792  	0.047544 
2918.298608  	0.047935 
2920.227424  	0.048581 
2922.156240  	0.049266 
2924.085056  	0.049806 
2926.013872  	0.050415 
2927.942688  	0.051046 
2929.871504  	0.051613 
2931.800320  	0.052082 
2933.729136  	0.052491 
2935.657952  	0.052798 
2937.586768  	0.053282 
2939.515584  	0.053756 
2941.444400  	0.054166 
2943.373216  	0.054511 
2945.302032  	0.054706 
2947.230848  	0.054812 
2949.159664  	0.054916 
2951.088480  	0.055119 
2953.017296  	0.055382 
2954.946112  	0.055473 
2956.874928  	0.055515 
2958.803744  	0.055389 
2960.732560  	0.055356 
2962.661376  	0.055453 
2964.590192  	0.055433 
2966.519008  	0.055596 
2968.447824  	0.055820 
2970.376640  	0.055880 
2972.305456  	0.055678 
2974.234272  	0.055478 
2976.163088  	0.055122 
2978.091904  	0.054737 
2980.020720  	0.054560 
2981.949536  	0.054501 
2983.878352  	0.054415 
2985.807168  	0.054545 
2987.735984  	0.054884 
2989.664800  	0.054754 
2991.593616  	0.053945 
2993.522432  	0.053440 
2995.451248  	0.053305 
2997.380064  	0.053229 
2999.308880  	0.052967 
3001.237696  	0.052661 
3003.166512  	0.052521 
3005.095328  	0.052345 
3007.024144  	0.052176 
3008.952960  	0.051909 
3010.881776  	0.051683 
3012.810592  	0.051503 
3014.739408  	0.051354 
3016.668224  	0.051340 
3018.597040  	0.051270 
3020.525856  	0.051053 
3022.454672  	0.050962 
3024.383488  	0.050942 
3026.312304  	0.050940 
3028.241120  	0.050873 
3030.169936  	0.050660 
3032.098752  	0.050809 
3034.027568  	0.050891 
3035.956384  	0.050790 
3037.885200  	0.050902 
3039.814016  	0.051186 
3041.742832  	0.051389 
3043.671648  	0.051561 
3045.600464  	0.051718 
3047.529280  	0.051952 
3049.458096  	0.052282 
3051.386912  	0.052319 
3053.315728  	0.052500 
3055.244544  	0.052938 
3057.173360  	0.053469 
3059.102176  	0.053824 
3061.030992  	0.054131 
3062.959808  	0.054460 
3064.888624  	0.054823 
3066.817440  	0.055352 
3068.746256  	0.055656 
3070.675072  	0.055901 
3072.603888  	0.056368 
3074.532704  	0.056960 
3076.461520  	0.057282 
3078.390336  	0.057522 
3080.319152  	0.058054 
3082.247968  	0.058708 
3084.176784  	0.059223 
3086.105600  	0.059416 
3088.034416  	0.059686 
3089.963232  	0.060188 
3091.892048  	0.060566 
3093.820864  	0.060760 
3095.749680  	0.061168 
3097.678496  	0.061375 
3099.607312  	0.061708 
3101.536128  	0.062194 
3103.464944  	0.062635 
3105.393760  	0.063162 
3107.322576  	0.063566 
3109.251392  	0.063777 
3111.180208  	0.064079 
3113.109024  	0.064311 
3115.037840  	0.064537 
3116.966656  	0.064941 
3118.895472  	0.065308 
3120.824288  	0.065503 
3122.753104  	0.065762 
3124.681920  	0.065999 
3126.610736  	0.066169 
3128.539552  	0.066516 
3130.468368  	0.066775 
3132.397184  	0.066894 
3134.326000  	0.067052 
3136.254816  	0.067327 
3138.183632  	0.067666 
3140.112448  	0.067855 
3142.041264  	0.068007 
3143.970080  	0.068349 
3145.898896  	0.068708 
3147.827712  	0.068942 
3149.756528  	0.069242 
3151.685344  	0.069720 
3153.614160  	0.070156 
3155.542976  	0.070335 
3157.471792  	0.070548 
3159.400608  	0.071107 
3161.329424  	0.071539 
3163.258240  	0.071867 
3165.187056  	0.072184 
3167.115872  	0.072238 
3169.044688  	0.072433 
3170.973504  	0.072570 
3172.902320  	0.072691 
3174.831136  	0.072919 
3176.759952  	0.073220 
3178.688768  	0.073499 
3180.617584  	0.073655 
3182.546400  	0.073500 
3184.475216  	0.073751 
3186.404032  	0.073941 
3188.332848  	0.073793 
3190.261664  	0.074007 
3192.190480  	0.074159 
3194.119296  	0.073956 
3196.048112  	0.073957 
3197.976928  	0.074318 
3199.905744  	0.074332 
3201.834560  	0.074210 
3203.763376  	0.074399 
3205.692192  	0.074369 
3207.621008  	0.074018 
3209.549824  	0.073765 
3211.478640  	0.073713 
3213.407456  	0.073637 
3215.336272  	0.073581 
3217.265088  	0.073326 
3219.193904  	0.073060 
3221.122720  	0.072792 
3223.051536  	0.072608 
3224.980352  	0.072448 
3226.909168  	0.072037 
3228.837984  	0.071849 
3230.766800  	0.072002 
3232.695616  	0.071916 
3234.624432  	0.071800 
3236.553248  	0.071765 
3238.482064  	0.071615 
3240.410880  	0.071439 
3242.339696  	0.071332 
3244.268512  	0.071130 
3246.197328  	0.071115 
3248.126144  	0.071097 
3250.054960  	0.071063 
3251.983776  	0.070950 
3253.912592  	0.071091 
3255.841408  	0.071329 
3257.770224  	0.071364 
3259.699040  	0.071471 
3261.627856  	0.071680 
3263.556672  	0.071930 
3265.485488  	0.072002 
3267.414304  	0.072056 
3269.343120  	0.072145 
3271.271936  	0.072270 
3273.200752  	0.072331 
3275.129568  	0.072494 
3277.058384  	0.072613 
3278.987200  	0.072642 
3280.916016  	0.072760 
3282.844832  	0.072913 
3284.773648  	0.072981 
3286.702464  	0.073031 
3288.631280  	0.073244 
3290.560096  	0.073443 
3292.488912  	0.073739 
3294.417728  	0.073870 
3296.346544  	0.073934 
3298.275360  	0.074170 
3300.204176  	0.074534 
3302.132992  	0.074827 
3304.061808  	0.075207 
3305.990624  	0.075514 
3307.919440  	0.075560 
3309.848256  	0.075434 
3311.777072  	0.075409 
3313.705888  	0.075786 
3315.634704  	0.076241 
3317.563520  	0.076611 
3319.492336  	0.076794 
3321.421152  	0.077039 
3323.349968  	0.077219 
3325.278784  	0.077363 
3327.207600  	0.077304 
3329.136416  	0.077142 
3331.065232  	0.077105 
3332.994048  	0.077204 
3334.922864  	0.077281 
3336.851680  	0.077306 
3338.780496  	0.077275 
3340.709312  	0.077308 
3342.638128  	0.077212 
3344.566944  	0.076803 
3346.495760  	0.076471 
3348.424576  	0.076333 
3350.353392  	0.076230 
3352.282208  	0.075994 
3354.211024  	0.075800 
3356.139840  	0.075648 
3358.068656  	0.075434 
3359.997472  	0.075049 
3361.926288  	0.074636 
3363.855104  	0.074357 
3365.783920  	0.073996 
3367.712736  	0.073752 
3369.641552  	0.073261 
3371.570368  	0.072950 
3373.499184  	0.072838 
3375.428000  	0.072435 
3377.356816  	0.072068 
3379.285632  	0.071944 
3381.214448  	0.071957 
3383.143264  	0.071571 
3385.072080  	0.071316 
3387.000896  	0.071026 
3388.929712  	0.070480 
3390.858528  	0.070044 
3392.787344  	0.069843 
3394.716160  	0.069489 
3396.644976  	0.069062 
3398.573792  	0.068717 
3400.502608  	0.068117 
3402.431424  	0.067674 
3404.360240  	0.067412 
3406.289056  	0.067079 
3408.217872  	0.066778 
3410.146688  	0.066399 
3412.075504  	0.066230 
3414.004320  	0.066029 
3415.933136  	0.065480 
3417.861952  	0.064877 
3419.790768  	0.064460 
3421.719584  	0.064315 
3423.648400  	0.064007 
3425.577216  	0.063671 
3427.506032  	0.063394 
3429.434848  	0.062937 
3431.363664  	0.062553 
3433.292480  	0.062162 
3435.221296  	0.061805 
3437.150112  	0.061468 
3439.078928  	0.061158 
3441.007744  	0.060800 
3442.936560  	0.060503 
3444.865376  	0.059888 
3446.794192  	0.059192 
3448.723008  	0.059077 
3450.651824  	0.058621 
3452.580640  	0.057946 
3454.509456  	0.057435 
3456.438272  	0.057058 
3458.367088  	0.056676 
3460.295904  	0.056297 
3462.224720  	0.055786 
3464.153536  	0.055172 
3466.082352  	0.054861 
3468.011168  	0.054499 
3469.939984  	0.053914 
3471.868800  	0.053349 
3473.797616  	0.052763 
3475.726432  	0.052271 
3477.655248  	0.051672 
3479.584064  	0.051037 
3481.512880  	0.050601 
3483.441696  	0.050266 
3485.370512  	0.049704 
3487.299328  	0.049284 
3489.228144  	0.048768 
3491.156960  	0.048037 
3493.085776  	0.047584 
3495.014592  	0.047103 
3496.943408  	0.046680 
3498.872224  	0.046170 
3500.801040  	0.045409 
3502.729856  	0.044974 
3504.658672  	0.044883 
3506.587488  	0.044151 
3508.516304  	0.043660 
3510.445120  	0.043607 
3512.373936  	0.043247 
3514.302752  	0.042819 
3516.231568  	0.042282 
3518.160384  	0.041661 
3520.089200  	0.041108 
3522.018016  	0.040597 
3523.946832  	0.040501 
3525.875648  	0.039956 
3527.804464  	0.039448 
3529.733280  	0.039516 
3531.662096  	0.039301 
3533.590912  	0.038605 
3535.519728  	0.038194 
3537.448544  	0.038173 
3539.377360  	0.037662 
3541.306176  	0.036818 
3543.234992  	0.036047 
3545.163808  	0.036139 
3547.092624  	0.036443 
3549.021440  	0.035750 
3550.950256  	0.034721 
3552.879072  	0.035000 
3554.807888  	0.035159 
3556.736704  	0.034394 
3558.665520  	0.033648 
3560.594336  	0.033338 
3562.523152  	0.032578 
3564.451968  	0.031308 
3566.380784  	0.031087 
3568.309600  	0.032539 
3570.238416  	0.032204 
3572.167232  	0.031042 
3574.096048  	0.030444 
3576.024864  	0.030053 
3577.953680  	0.029618 
3579.882496  	0.029298 
3581.811312  	0.028871 
3583.740128  	0.027434 
3585.668944  	0.025745 
3587.597760  	0.026611 
3589.526576  	0.027741 
3591.455392  	0.026039 
3593.384208  	0.025038 
3595.313024  	0.025102 
3597.241840  	0.024622 
3599.170656  	0.023729 
3601.099472  	0.023743 
3603.028288  	0.023571 
3604.957104  	0.022036 
3606.885920  	0.020773 
3608.814736  	0.021570 
3610.743552  	0.020977 
3612.672368  	0.019902 
3614.601184  	0.019872 
3616.530000  	0.018263 
3618.458816  	0.017848 
3620.387632  	0.019480 
3622.316448  	0.019101 
3624.245264  	0.017435 
3626.174080  	0.014691 
3628.102896  	0.013599 
3630.031712  	0.017975 
3631.960528  	0.017161 
3633.889344  	0.015998 
3635.818160  	0.015491 
3637.746976  	0.014871 
3639.675792  	0.014825 
3641.604608  	0.014380 
3643.533424  	0.013392 
3645.462240  	0.010630 
3647.391056  	0.008902 
3649.319872  	0.010517 
3651.248688  	0.013993 
3653.177504  	0.013000 
3655.106320  	0.010923 
3657.035136  	0.012810 
3658.963952  	0.012980 
3660.892768  	0.011830 
3662.821584  	0.011255 
3664.750400  	0.010413 
3666.679216  	0.008395 
3668.608032  	0.006311 
3670.536848  	0.008576 
3672.465664  	0.008132 
3674.394480  	0.005402 
3676.323296  	0.010255 
3678.252112  	0.010414 
3680.180928  	0.009710 
3682.109744  	0.009447 
3684.038560  	0.008687 
3685.967376  	0.006626 
3687.896192  	0.005168 
3689.825008  	0.007083 
3691.753824  	0.008711 
3693.682640  	0.008693 
3695.611456  	0.007897 
3697.540272  	0.007679 
3699.469088  	0.006504 
3701.397904  	0.006693 
3703.326720  	0.007724 
3705.255536  	0.006813 
3707.184352  	0.005038 
3709.113168  	0.003618 
3711.041984  	0.004341 
3712.970800  	0.007188 
3714.899616  	0.007241 
3716.828432  	0.005918 
3718.757248  	0.005342 
3720.686064  	0.004810 
3722.614880  	0.005134 
3724.543696  	0.005355 
3726.472512  	0.005857 
3728.401328  	0.005674 
3730.330144  	0.003244 
3732.258960  	0.002417 
3734.187776  	0.002904 
3736.116592  	0.005900 
3738.045408  	0.006853 
3739.974224  	0.005045 
3741.903040  	0.002389 
3743.831856  	0.002514 
3745.760672  	0.006831 
3747.689488  	0.003282 
3749.618304  	0.001929 
3751.547120  	0.004942 
3753.475936  	0.008025 
3755.404752  	0.006333 
3757.333568  	0.004970 
3759.262384  	0.005731 
3761.191200  	0.007171 
3763.120016  	0.006050 
3765.048832  	0.005581 
3766.977648  	0.005636 
3768.906464  	0.005149 
3770.835280  	0.007148 
3772.764096  	0.007500 
3774.692912  	0.006716 
3776.621728  	0.005656 
3778.550544  	0.005192 
3780.479360  	0.006786 
3782.408176  	0.006556 
3784.336992  	0.006268 
3786.265808  	0.006848 
3788.194624  	0.006898 
3790.123440  	0.006806 
3792.052256  	0.006470 
3793.981072  	0.005335 
3795.909888  	0.005012 
3797.838704  	0.005454 
3799.767520  	0.003297 
3801.696336  	0.005212 
3803.625152  	0.006827 
3805.553968  	0.004551 
3807.482784  	0.006689 
3809.411600  	0.007606 
3811.340416  	0.006589 
3813.269232  	0.004804 
3815.198048  	0.003898 
3817.126864  	0.005874 
3819.055680  	0.003375 
3820.984496  	0.004302 
3822.913312  	0.007839 
3824.842128  	0.006034 
3826.770944  	0.006011 
3828.699760  	0.006130 
3830.628576  	0.004978 
3832.557392  	0.005105 
3834.486208  	0.004242 
3836.415024  	0.003137 
3838.343840  	0.004644 
3840.272656  	0.005956 
3842.201472  	0.005974 
3844.130288  	0.006685 
3846.059104  	0.007024 
3847.987920  	0.005696 
3849.916736  	0.003198 
3851.845552  	0.000353 
3853.774368  	0.005556 
3855.703184  	0.008751 
3857.632000  	0.006997 
3859.560816  	0.005662 
3861.489632  	0.004699 
3863.418448  	0.004672 
3865.347264  	0.006168 
3867.276080  	0.005075 
3869.204896  	0.004321 
3871.133712  	0.007248 
3873.062528  	0.006107 
3874.991344  	0.007251 
3876.920160  	0.006482 
3878.848976  	0.004624 
3880.777792  	0.006135 
3882.706608  	0.006472 
3884.635424  	0.005205 
3886.564240  	0.007517 
3888.493056  	0.006520 
3890.421872  	0.005459 
3892.350688  	0.007314 
3894.279504  	0.007430 
3896.208320  	0.006017 
3898.137136  	0.005017 
3900.065952  	0.005353 
3901.994768  	0.005560 
3903.923584  	0.006733 
3905.852400  	0.008199 
3907.781216  	0.007750 
3909.710032  	0.007171 
3911.638848  	0.007111 
3913.567664  	0.006696 
3915.496480  	0.006116 
3917.425296  	0.007131 
3919.354112  	0.007597 
3921.282928  	0.007357 
3923.211744  	0.006698 
3925.140560  	0.007343 
3927.069376  	0.007354 
3928.998192  	0.006356 
3930.927008  	0.006500 
3932.855824  	0.007741 
3934.784640  	0.007894 
3936.713456  	0.007518 
3938.642272  	0.007403 
3940.571088  	0.006669 
3942.499904  	0.007076 
3944.428720  	0.007759 
3946.357536  	0.007180 
3948.286352  	0.007237 
3950.215168  	0.007476 
3952.143984  	0.007374 
3954.072800  	0.007130 
3956.001616  	0.007000 
3957.930432  	0.007225 
3959.859248  	0.007455 
3961.788064  	0.007479 
3963.716880  	0.007587 
3965.645696  	0.007499 
3967.574512  	0.007522 
3969.503328  	0.007548 
3971.432144  	0.007469 
3973.360960  	0.007387 
3975.289776  	0.007459 
3977.218592  	0.007477 
3979.147408  	0.007530 
3981.076224  	0.007522 
3983.005040  	0.007506 
3984.933856  	0.007512 
3986.862672  	0.007616 
3988.791488  	0.007462 
3990.720304  	0.007504 
3992.649120  	0.007617 
3994.577936  	0.007616 
3996.506752  	0.007623 
3998.435568  	0.007597 
4000.364384  	0.007399 