##TITLE=No Description
##DATA TYPE=INFRARED SPECTRUM
##XUNITS=1/CM
##YUNITS=Abs
399.264912  	0.600254 
401.193728  	0.591326 
403.122544  	0.588634 
405.051360  	0.584490 
406.980176  	0.589965 
408.908992  	0.575060 
410.837808  	0.563672 
412.766624  	0.556284 
414.695440  	0.554498 
416.624256  	0.538995 
418.553072  	0.543356 
420.481888  	0.548365 
422.410704  	0.542042 
424.339520  	0.527364 
426.268336  	0.535845 
428.197152  	0.544379 
430.125968  	0.545134 
432.054784  	0.534007 
433.983600  	0.529283 
435.912416  	0.522611 
437.841232  	0.523615 
439.770048  	0.523784 
441.698864  	0.523713 
443.627680  	0.515573 
445.556496  	0.510455 
447.485312  	0.509839 
449.414128  	0.513171 
451.342944  	0.508059 
453.271760  	0.505508 
455.200576  	0.502608 
457.129392  	0.500701 
459.058208  	0.498637 
460.987024  	0.505579 
462.915840  	0.504109 
464.844656  	0.504364 
466.773472  	0.506311 
468.702288  	0.508362 
470.631104  	0.504081 
472.559920  	0.502882 
474.488736  	0.501888 
476.417552  	0.501330 
478.346368  	0.499673 
480.275184  	0.502243 
482.204000  	0.499875 
484.132816  	0.498689 
486.061632  	0.494899 
487.990448  	0.496132 
489.919264  	0.495875 
491.848080  	0.498073 
493.776896  	0.494142 
495.705712  	0.493587 
497.634528  	0.492412 
499.563344  	0.491408 
501.492160  	0.487575 
503.420976  	0.487565 
505.349792  	0.485459 
507.278608  	0.484983 
509.207424  	0.484719 
511.136240  	0.485885 
513.065056  	0.487429 
514.993872  	0.488576 
516.922688  	0.489188 
518.851504  	0.491309 
520.780320  	0.489049 
522.709136  	0.488581 
524.637952  	0.486761 
526.566768  	0.484956 
528.495584  	0.480903 
530.424400  	0.479142 
532.353216  	0.476600 
534.282032  	0.471960 
536.210848  	0.466953 
538.139664  	0.464376 
540.068480  	0.460507 
541.997296  	0.458045 
543.926112  	0.454886 
545.854928  	0.451703 
547.783744  	0.446216 
549.712560  	0.442376 
551.641376  	0.438431 
553.570192  	0.436765 
555.499008  	0.433141 
557.427824  	0.429744 
559.356640  	0.426241 
561.285456  	0.424088 
563.214272  	0.420180 
565.143088  	0.415765 
567.071904  	0.411869 
569.000720  	0.407730 
570.929536  	0.404227 
572.858352  	0.402025 
574.787168  	0.399382 
576.715984  	0.395877 
578.644800  	0.391452 
580.573616  	0.388138 
582.502432  	0.384762 
584.431248  	0.382218 
586.360064  	0.378803 
588.288880  	0.376096 
590.217696  	0.374384 
592.146512  	0.373241 
594.075328  	0.370988 
596.004144  	0.368518 
597.932960  	0.366538 
599.861776  	0.365402 
601.790592  	0.364290 
603.719408  	0.363216 
605.648224  	0.361835 
607.577040  	0.361307 
609.505856  	0.360565 
611.434672  	0.359720 
613.363488  	0.357713 
615.292304  	0.356071 
617.221120  	0.353635 
619.149936  	0.351936 
621.078752  	0.349970 
623.007568  	0.348009 
624.936384  	0.345650 
626.865200  	0.344293 
628.794016  	0.343246 
630.722832  	0.342169 
632.651648  	0.340805 
634.580464  	0.340354 
636.509280  	0.340747 
638.438096  	0.340016 
640.366912  	0.339000 
642.295728  	0.337850 
644.224544  	0.335652 
646.153360  	0.332408 
648.082176  	0.328557 
650.010992  	0.325322 
651.939808  	0.322193 
653.868624  	0.319581 
655.797440  	0.315722 
657.726256  	0.312084 
659.655072  	0.308367 
661.583888  	0.304898 
663.512704  	0.301970 
665.441520  	0.299698 
667.370336  	0.294290 
669.299152  	0.288497 
671.227968  	0.288350 
673.156784  	0.286288 
675.085600  	0.283786 
677.014416  	0.282237 
678.943232  	0.280783 
680.872048  	0.279165 
682.800864  	0.277387 
684.729680  	0.275934 
686.658496  	0.274116 
688.587312  	0.271964 
690.516128  	0.269856 
692.444944  	0.268382 
694.373760  	0.267081 
696.302576  	0.265901 
698.231392  	0.263699 
700.160208  	0.260973 
702.089024  	0.258386 
704.017840  	0.256705 
705.946656  	0.254163 
707.875472  	0.251815 
709.804288  	0.249917 
711.733104  	0.248102 
713.661920  	0.246785 
715.590736  	0.246345 
717.519552  	0.245663 
719.448368  	0.245836 
721.377184  	0.246676 
723.306000  	0.247336 
725.234816  	0.247211 
727.163632  	0.246220 
729.092448  	0.244026 
731.021264  	0.241519 
732.950080  	0.238594 
734.878896  	0.235760 
736.807712  	0.233347 
738.736528  	0.231414 
740.665344  	0.229750 
742.594160  	0.228305 
744.522976  	0.226964 
746.451792  	0.225855 
748.380608  	0.224906 
750.309424  	0.224217 
752.238240  	0.223566 
754.167056  	0.223145 
756.095872  	0.222262 
758.024688  	0.221050 
759.953504  	0.220026 
761.882320  	0.219967 
763.811136  	0.220177 
765.739952  	0.219866 
767.668768  	0.218696 
769.597584  	0.217490 
771.526400  	0.217281 
773.455216  	0.218814 
775.384032  	0.221270 
777.312848  	0.224435 
779.241664  	0.227990 
781.170480  	0.228921 
783.099296  	0.226241 
785.028112  	0.221348 
786.956928  	0.215650 
788.885744  	0.210892 
790.814560  	0.207019 
792.743376  	0.204879 
794.672192  	0.203634 
796.601008  	0.202855 
798.529824  	0.201157 
800.458640  	0.198153 
802.387456  	0.194853 
804.316272  	0.193107 
806.245088  	0.192542 
808.173904  	0.191904 
810.102720  	0.191663 
812.031536  	0.191835 
813.960352  	0.191598 
815.889168  	0.191474 
817.817984  	0.191442 
819.746800  	0.191256 
821.675616  	0.190587 
823.604432  	0.190100 
825.533248  	0.189207 
827.462064  	0.188106 
829.390880  	0.187056 
831.319696  	0.185897 
833.248512  	0.184673 
835.177328  	0.182909 
837.106144  	0.180485 
839.034960  	0.177830 
840.963776  	0.175100 
842.892592  	0.172735 
844.821408  	0.170172 
846.750224  	0.167566 
848.679040  	0.165567 
850.607856  	0.164097 
852.536672  	0.162871 
854.465488  	0.161323 
856.394304  	0.160199 
858.323120  	0.159488 
860.251936  	0.158548 
862.180752  	0.157138 
864.109568  	0.155966 
866.038384  	0.154845 
867.967200  	0.153708 
869.896016  	0.152267 
871.824832  	0.150504 
873.753648  	0.149431 
875.682464  	0.149431 
877.611280  	0.150541 
879.540096  	0.151720 
881.468912  	0.151835 
883.397728  	0.152016 
885.326544  	0.151992 
887.255360  	0.151587 
889.184176  	0.151667 
891.112992  	0.151554 
893.041808  	0.149703 
894.970624  	0.147113 
896.899440  	0.144489 
898.828256  	0.141170 
900.757072  	0.137599 
902.685888  	0.134495 
904.614704  	0.132170 
906.543520  	0.131048 
908.472336  	0.131101 
910.401152  	0.132089 
912.329968  	0.133920 
914.258784  	0.136119 
916.187600  	0.138197 
918.116416  	0.139652 
920.045232  	0.140297 
921.974048  	0.139885 
923.902864  	0.139041 
925.831680  	0.137847 
927.760496  	0.136597 
929.689312  	0.135739 
931.618128  	0.135495 
933.546944  	0.135779 
935.475760  	0.135943 
937.404576  	0.136028 
939.333392  	0.136547 
941.262208  	0.137698 
943.191024  	0.139803 
945.119840  	0.143080 
947.048656  	0.147420 
948.977472  	0.152909 
950.906288  	0.159099 
952.835104  	0.165950 
954.763920  	0.172866 
956.692736  	0.179253 
958.621552  	0.184903 
960.550368  	0.188693 
962.479184  	0.190340 
964.408000  	0.189121 
966.336816  	0.185615 
968.265632  	0.179728 
970.194448  	0.172255 
972.123264  	0.163571 
974.052080  	0.154222 
975.980896  	0.145064 
977.909712  	0.136559 
979.838528  	0.129342 
981.767344  	0.123487 
983.696160  	0.119446 
985.624976  	0.117408 
987.553792  	0.117640 
989.482608  	0.119734 
991.411424  	0.123622 
993.340240  	0.128970 
995.269056  	0.135617 
997.197872  	0.142905 
999.126688  	0.150039 
1001.055504  	0.157357 
1002.984320  	0.164685 
1004.913136  	0.171994 
1006.841952  	0.178342 
1008.770768  	0.183794 
1010.699584  	0.188414 
1012.628400  	0.192028 
1014.557216  	0.194179 
1016.486032  	0.195683 
1018.414848  	0.196772 
1020.343664  	0.197494 
1022.272480  	0.198079 
1024.201296  	0.199126 
1026.130112  	0.202204 
1028.058928  	0.204582 
1029.987744  	0.203475 
1031.916560  	0.205461 
1033.845376  	0.210327 
1035.774192  	0.217105 
1037.703008  	0.223782 
1039.631824  	0.230094 
1041.560640  	0.238091 
1043.489456  	0.248823 
1045.418272  	0.260975 
1047.347088  	0.274828 
1049.275904  	0.288733 
1051.204720  	0.302249 
1053.133536  	0.312886 
1055.062352  	0.321738 
1056.991168  	0.328048 
1058.919984  	0.329347 
1060.848800  	0.327293 
1062.777616  	0.327049 
1064.706432  	0.328056 
1066.635248  	0.326087 
1068.564064  	0.317490 
1070.492880  	0.310499 
1072.421696  	0.305572 
1074.350512  	0.301357 
1076.279328  	0.296723 
1078.208144  	0.292841 
1080.136960  	0.288289 
1082.065776  	0.283485 
1083.994592  	0.278086 
1085.923408  	0.272853 
1087.852224  	0.266862 
1089.781040  	0.260391 
1091.709856  	0.251805 
1093.638672  	0.243213 
1095.567488  	0.234092 
1097.496304  	0.225214 
1099.425120  	0.215712 
1101.353936  	0.205870 
1103.282752  	0.195727 
1105.211568  	0.185079 
1107.140384  	0.174135 
1109.069200  	0.163478 
1110.998016  	0.153655 
1112.926832  	0.144523 
1114.855648  	0.135784 
1116.784464  	0.127279 
1118.713280  	0.119599 
1120.642096  	0.112802 
1122.570912  	0.106272 
1124.499728  	0.100202 
1126.428544  	0.094546 
1128.357360  	0.089354 
1130.286176  	0.084665 
1132.214992  	0.080715 
1134.143808  	0.077259 
1136.072624  	0.073897 
1138.001440  	0.070704 
1139.930256  	0.067634 
1141.859072  	0.064976 
1143.787888  	0.062297 
1145.716704  	0.060004 
1147.645520  	0.058273 
1149.574336  	0.057000 
1151.503152  	0.056096 
1153.431968  	0.055750 
1155.360784  	0.055698 
1157.289600  	0.056056 
1159.218416  	0.056772 
1161.147232  	0.057946 
1163.076048  	0.059086 
1165.004864  	0.060622 
1166.933680  	0.062193 
1168.862496  	0.064116 
1170.791312  	0.066329 
1172.720128  	0.068488 
1174.648944  	0.070816 
1176.577760  	0.073462 
1178.506576  	0.075989 
1180.435392  	0.078414 
1182.364208  	0.080926 
1184.293024  	0.083669 
1186.221840  	0.086440 
1188.150656  	0.089478 
1190.079472  	0.093136 
1192.008288  	0.097482 
1193.937104  	0.102345 
1195.865920  	0.107827 
1197.794736  	0.113803 
1199.723552  	0.120231 
1201.652368  	0.126776 
1203.581184  	0.133597 
1205.510000  	0.140561 
1207.438816  	0.147415 
1209.367632  	0.154134 
1211.296448  	0.160393 
1213.225264  	0.166365 
1215.154080  	0.171362 
1217.082896  	0.175863 
1219.011712  	0.179732 
1220.940528  	0.183450 
1222.869344  	0.186028 
1224.798160  	0.188037 
1226.726976  	0.189461 
1228.655792  	0.190334 
1230.584608  	0.190023 
1232.513424  	0.188871 
1234.442240  	0.186314 
1236.371056  	0.182930 
1238.299872  	0.179057 
1240.228688  	0.176314 
1242.157504  	0.171744 
1244.086320  	0.164811 
1246.015136  	0.158626 
1247.943952  	0.153193 
1249.872768  	0.147393 
1251.801584  	0.140864 
1253.730400  	0.134250 
1255.659216  	0.127818 
1257.588032  	0.121619 
1259.516848  	0.115619 
1261.445664  	0.109904 
1263.374480  	0.104528 
1265.303296  	0.099719 
1267.232112  	0.095459 
1269.160928  	0.092129 
1271.089744  	0.089733 
1273.018560  	0.088363 
1274.947376  	0.087740 
1276.876192  	0.087238 
1278.805008  	0.086283 
1280.733824  	0.084475 
1282.662640  	0.081553 
1284.591456  	0.077845 
1286.520272  	0.074136 
1288.449088  	0.071234 
1290.377904  	0.068891 
1292.306720  	0.066956 
1294.235536  	0.064819 
1296.164352  	0.062002 
1298.093168  	0.058739 
1300.021984  	0.055374 
1301.950800  	0.052276 
1303.879616  	0.049683 
1305.808432  	0.047613 
1307.737248  	0.046037 
1309.666064  	0.044576 
1311.594880  	0.043646 
1313.523696  	0.043100 
1315.452512  	0.042938 
1317.381328  	0.043067 
1319.310144  	0.043624 
1321.238960  	0.044501 
1323.167776  	0.045405 
1325.096592  	0.045961 
1327.025408  	0.046090 
1328.954224  	0.045695 
1330.883040  	0.045096 
1332.811856  	0.044277 
1334.740672  	0.043479 
1336.669488  	0.042464 
1338.598304  	0.041636 
1340.527120  	0.041153 
1342.455936  	0.041153 
1344.384752  	0.041306 
1346.313568  	0.041946 
1348.242384  	0.043080 
1350.171200  	0.044787 
1352.100016  	0.046696 
1354.028832  	0.048696 
1355.957648  	0.050956 
1357.886464  	0.053238 
1359.815280  	0.054913 
1361.744096  	0.056520 
1363.672912  	0.058814 
1365.601728  	0.060848 
1367.530544  	0.062032 
1369.459360  	0.063048 
1371.388176  	0.063393 
1373.316992  	0.062781 
1375.245808  	0.062217 
1377.174624  	0.061759 
1379.103440  	0.060745 
1381.032256  	0.059667 
1382.961072  	0.058575 
1384.889888  	0.057348 
1386.818704  	0.055305 
1388.747520  	0.053649 
1390.676336  	0.053533 
1392.605152  	0.055218 
1394.533968  	0.055046 
1396.462784  	0.051968 
1398.391600  	0.051176 
1400.320416  	0.053133 
1402.249232  	0.055048 
1404.178048  	0.056638 
1406.106864  	0.058354 
1408.035680  	0.059831 
1409.964496  	0.060721 
1411.893312  	0.061505 
1413.822128  	0.061902 
1415.750944  	0.061815 
1417.679760  	0.060820 
1419.608576  	0.059798 
1421.537392  	0.059328 
1423.466208  	0.057965 
1425.395024  	0.056375 
1427.323840  	0.054463 
1429.252656  	0.052066 
1431.181472  	0.050747 
1433.110288  	0.050479 
1435.039104  	0.050001 
1436.967920  	0.050067 
1438.896736  	0.051342 
1440.825552  	0.051937 
1442.754368  	0.052352 
1444.683184  	0.052334 
1446.612000  	0.052143 
1448.540816  	0.052767 
1450.469632  	0.053562 
1452.398448  	0.053463 
1454.327264  	0.052771 
1456.256080  	0.050476 
1458.184896  	0.050169 
1460.113712  	0.051809 
1462.042528  	0.052537 
1463.971344  	0.052231 
1465.900160  	0.053975 
1467.828976  	0.056434 
1469.757792  	0.058288 
1471.686608  	0.059876 
1473.615424  	0.064356 
1475.544240  	0.068164 
1477.473056  	0.071289 
1479.401872  	0.072754 
1481.330688  	0.073167 
1483.259504  	0.073119 
1485.188320  	0.072082 
1487.117136  	0.069605 
1489.045952  	0.066859 
1490.974768  	0.064407 
1492.903584  	0.062376 
1494.832400  	0.058880 
1496.761216  	0.054576 
1498.690032  	0.051456 
1500.618848  	0.049556 
1502.547664  	0.047536 
1504.476480  	0.044361 
1506.405296  	0.039864 
1508.334112  	0.039909 
1510.262928  	0.040513 
1512.191744  	0.039959 
1514.120560  	0.038934 
1516.049376  	0.037730 
1517.978192  	0.037973 
1519.907008  	0.038392 
1521.835824  	0.039892 
1523.764640  	0.043175 
1525.693456  	0.045511 
1527.622272  	0.047939 
1529.551088  	0.049680 
1531.479904  	0.049789 
1533.408720  	0.048632 
1535.337536  	0.048316 
1537.266352  	0.046025 
1539.195168  	0.040951 
1541.123984  	0.038457 
1543.052800  	0.039215 
1544.981616  	0.039140 
1546.910432  	0.039180 
1548.839248  	0.038309 
1550.768064  	0.038192 
1552.696880  	0.038165 
1554.625696  	0.038249 
1556.554512  	0.037416 
1558.483328  	0.035791 
1560.412144  	0.041707 
1562.340960  	0.045916 
1564.269776  	0.048028 
1566.198592  	0.051417 
1568.127408  	0.053774 
1570.056224  	0.058220 
1571.985040  	0.063039 
1573.913856  	0.064993 
1575.842672  	0.065575 
1577.771488  	0.068199 
1579.700304  	0.068986 
1581.629120  	0.068963 
1583.557936  	0.069221 
1585.486752  	0.070663 
1587.415568  	0.073090 
1589.344384  	0.076823 
1591.273200  	0.081235 
1593.202016  	0.086265 
1595.130832  	0.091133 
1597.059648  	0.096174 
1598.988464  	0.099852 
1600.917280  	0.102715 
1602.846096  	0.104407 
1604.774912  	0.105543 
1606.703728  	0.105130 
1608.632544  	0.104536 
1610.561360  	0.103831 
1612.490176  	0.103687 
1614.418992  	0.102748 
1616.347808  	0.102955 
1618.276624  	0.106404 
1620.205440  	0.110050 
1622.134256  	0.113080 
1624.063072  	0.119546 
1625.991888  	0.125688 
1627.920704  	0.132248 
1629.849520  	0.139961 
1631.778336  	0.146383 
1633.707152  	0.150312 
1635.635968  	0.156183 
1637.564784  	0.164289 
1639.493600  	0.169319 
1641.422416  	0.172902 
1643.351232  	0.175127 
1645.280048  	0.174854 
1647.208864  	0.175650 
1649.137680  	0.177463 
1651.066496  	0.175974 
1652.995312  	0.171871 
1654.924128  	0.174316 
1656.852944  	0.174431 
1658.781760  	0.173252 
1660.710576  	0.171134 
1662.639392  	0.169190 
1664.568208  	0.168369 
1666.497024  	0.166763 
1668.425840  	0.163926 
1670.354656  	0.162528 
1672.283472  	0.162263 
1674.212288  	0.161178 
1676.141104  	0.161144 
1678.069920  	0.161840 
1679.998736  	0.161654 
1681.927552  	0.160786 
1683.856368  	0.158949 
1685.785184  	0.161856 
1687.714000  	0.161966 
1689.642816  	0.160730 
1691.571632  	0.159349 
1693.500448  	0.156762 
1695.429264  	0.152004 
1697.358080  	0.148588 
1699.286896  	0.144312 
1701.215712  	0.140249 
1703.144528  	0.137760 
1705.073344  	0.132832 
1707.002160  	0.128195 
1708.930976  	0.123987 
1710.859792  	0.118799 
1712.788608  	0.112873 
1714.717424  	0.106000 
1716.646240  	0.098490 
1718.575056  	0.091776 
1720.503872  	0.087026 
1722.432688  	0.081814 
1724.361504  	0.075529 
1726.290320  	0.069986 
1728.219136  	0.064150 
1730.147952  	0.058343 
1732.076768  	0.052735 
1734.005584  	0.046683 
1735.934400  	0.042531 
1737.863216  	0.039497 
1739.792032  	0.034708 
1741.720848  	0.031687 
1743.649664  	0.028718 
1745.578480  	0.026022 
1747.507296  	0.022882 
1749.436112  	0.020914 
1751.364928  	0.019663 
1753.293744  	0.019454 
1755.222560  	0.018179 
1757.151376  	0.017000 
1759.080192  	0.016212 
1761.009008  	0.015523 
1762.937824  	0.015089 
1764.866640  	0.015196 
1766.795456  	0.014245 
1768.724272  	0.013570 
1770.653088  	0.011978 
1772.581904  	0.011445 
1774.510720  	0.012334 
1776.439536  	0.012818 
1778.368352  	0.012497 
1780.297168  	0.012239 
1782.225984  	0.012169 
1784.154800  	0.012217 
1786.083616  	0.012100 
1788.012432  	0.012061 
1789.941248  	0.010979 
1791.870064  	0.010081 
1793.798880  	0.010360 
1795.727696  	0.011059 
1797.656512  	0.010756 
1799.585328  	0.010352 
1801.514144  	0.010177 
1803.442960  	0.010338 
1805.371776  	0.010224 
1807.300592  	0.010218 
1809.229408  	0.009541 
1811.158224  	0.009452 
1813.087040  	0.009607 
1815.015856  	0.009548 
1816.944672  	0.009243 
1818.873488  	0.009660 
1820.802304  	0.009742 
1822.731120  	0.009656 
1824.659936  	0.009131 
1826.588752  	0.009318 
1828.517568  	0.008640 
1830.446384  	0.008945 
1832.375200  	0.009603 
1834.304016  	0.009644 
1836.232832  	0.009425 
1838.161648  	0.009856 
1840.090464  	0.009788 
1842.019280  	0.009202 
1843.948096  	0.008292 
1845.876912  	0.008963 
1847.805728  	0.009300 
1849.734544  	0.009601 
1851.663360  	0.009433 
1853.592176  	0.009459 
1855.520992  	0.009504 
1857.449808  	0.009886 
1859.378624  	0.009607 
1861.307440  	0.009387 
1863.236256  	0.009043 
1865.165072  	0.008895 
1867.093888  	0.008413 
1869.022704  	0.008768 
1870.951520  	0.009121 
1872.880336  	0.009474 
1874.809152  	0.009360 
1876.737968  	0.009505 
1878.666784  	0.009155 
1880.595600  	0.009329 
1882.524416  	0.009326 
1884.453232  	0.009299 
1886.382048  	0.009045 
1888.310864  	0.009011 
1890.239680  	0.009198 
1892.168496  	0.009674 
1894.097312  	0.009060 
1896.026128  	0.009215 
1897.954944  	0.009260 
1899.883760  	0.009400 
1901.812576  	0.009325 
1903.741392  	0.009482 
1905.670208  	0.008978 
1907.599024  	0.008867 
1909.527840  	0.008807 
1911.456656  	0.009238 
1913.385472  	0.009561 
1915.314288  	0.010006 
1917.243104  	0.009493 
1919.171920  	0.009267 
1921.100736  	0.009334 
1923.029552  	0.009924 
1924.958368  	0.009413 
1926.887184  	0.009528 
1928.816000  	0.009253 
1930.744816  	0.008795 
1932.673632  	0.008483 
1934.602448  	0.009060 
1936.531264  	0.009221 
1938.460080  	0.008903 
1940.388896  	0.008162 
1942.317712  	0.008117 
1944.246528  	0.008285 
1946.175344  	0.009088 
1948.104160  	0.008521 
1950.032976  	0.008337 
1951.961792  	0.008315 
1953.890608  	0.008520 
1955.819424  	0.007906 
1957.748240  	0.007712 
1959.677056  	0.007640 
1961.605872  	0.007790 
1963.534688  	0.007597 
1965.463504  	0.008293 
1967.392320  	0.007324 
1969.321136  	0.006713 
1971.249952  	0.007420 
1973.178768  	0.009227 
1975.107584  	0.007935 
1977.036400  	0.007596 
1978.965216  	0.009773 
1980.894032  	0.009993 
1982.822848  	0.008018 
1984.751664  	0.008758 
1986.680480  	0.009700 
1988.609296  	0.009670 
1990.538112  	0.008423 
1992.466928  	0.008529 
1994.395744  	0.008579 
1996.324560  	0.009122 
1998.253376  	0.008169 
2000.182192  	0.008058 
2002.111008  	0.007871 
2004.039824  	0.007881 
2005.968640  	0.006742 
2007.897456  	0.007503 
2009.826272  	0.007089 
2011.755088  	0.006681 
2013.683904  	0.007471 
2015.612720  	0.007932 
2017.541536  	0.007004 
2019.470352  	0.007683 
2021.399168  	0.007571 
2023.327984  	0.008631 
2025.256800  	0.008677 
2027.185616  	0.008268 
2029.114432  	0.007166 
2031.043248  	0.008357 
2032.972064  	0.008166 
2034.900880  	0.009430 
2036.829696  	0.009821 
2038.758512  	0.008941 
2040.687328  	0.007917 
2042.616144  	0.008265 
2044.544960  	0.008083 
2046.473776  	0.008612 
2048.402592  	0.008642 
2050.331408  	0.009508 
2052.260224  	0.008799 
2054.189040  	0.008704 
2056.117856  	0.008274 
2058.046672  	0.008563 
2059.975488  	0.008471 
2061.904304  	0.008419 
2063.833120  	0.009117 
2065.761936  	0.009871 
2067.690752  	0.009319 
2069.619568  	0.008979 
2071.548384  	0.008108 
2073.477200  	0.008463 
2075.406016  	0.009055 
2077.334832  	0.009377 
2079.263648  	0.009198 
2081.192464  	0.009632 
2083.121280  	0.010069 
2085.050096  	0.009917 
2086.978912  	0.009517 
2088.907728  	0.009554 
2090.836544  	0.008954 
2092.765360  	0.008743 
2094.694176  	0.008918 
2096.622992  	0.008982 
2098.551808  	0.008540 
2100.480624  	0.008761 
2102.409440  	0.008865 
2104.338256  	0.009612 
2106.267072  	0.009636 
2108.195888  	0.009505 
2110.124704  	0.009904 
2112.053520  	0.010153 
2113.982336  	0.009826 
2115.911152  	0.009637 
2117.839968  	0.009096 
2119.768784  	0.008901 
2121.697600  	0.008709 
2123.626416  	0.008496 
2125.555232  	0.008468 
2127.484048  	0.008753 
2129.412864  	0.008563 
2131.341680  	0.008114 
2133.270496  	0.008049 
2135.199312  	0.008205 
2137.128128  	0.008374 
2139.056944  	0.008615 
2140.985760  	0.007965 
2142.914576  	0.008064 
2144.843392  	0.007761 
2146.772208  	0.008107 
2148.701024  	0.008136 
2150.629840  	0.007859 
2152.558656  	0.007084 
2154.487472  	0.007201 
2156.416288  	0.006366 
2158.345104  	0.008065 
2160.273920  	0.010846 
2162.202736  	0.011013 
2164.131552  	0.010292 
2166.060368  	0.011720 
2167.989184  	0.011175 
2169.918000  	0.009718 
2171.846816  	0.008167 
2173.775632  	0.008336 
2175.704448  	0.009121 
2177.633264  	0.009685 
2179.562080  	0.009389 
2181.490896  	0.009607 
2183.419712  	0.009710 
2185.348528  	0.009768 
2187.277344  	0.009163 
2189.206160  	0.009288 
2191.134976  	0.010159 
2193.063792  	0.011229 
2194.992608  	0.011026 
2196.921424  	0.010530 
2198.850240  	0.010852 
2200.779056  	0.010721 
2202.707872  	0.010803 
2204.636688  	0.010722 
2206.565504  	0.010463 
2208.494320  	0.010821 
2210.423136  	0.009997 
2212.351952  	0.010242 
2214.280768  	0.010574 
2216.209584  	0.010315 
2218.138400  	0.010122 
2220.067216  	0.010089 
2221.996032  	0.009970 
2223.924848  	0.009975 
2225.853664  	0.009961 
2227.782480  	0.009990 
2229.711296  	0.010226 
2231.640112  	0.010350 
2233.568928  	0.009850 
2235.497744  	0.009705 
2237.426560  	0.009308 
2239.355376  	0.009535 
2241.284192  	0.009761 
2243.213008  	0.010062 
2245.141824  	0.009923 
2247.070640  	0.009564 
2248.999456  	0.009449 
2250.928272  	0.009645 
2252.857088  	0.009418 
2254.785904  	0.009354 
2256.714720  	0.010000 
2258.643536  	0.010244 
2260.572352  	0.009644 
2262.501168  	0.009540 
2264.429984  	0.009611 
2266.358800  	0.010143 
2268.287616  	0.010073 
2270.216432  	0.010122 
2272.145248  	0.010092 
2274.074064  	0.010503 
2276.002880  	0.010498 
2277.931696  	0.010724 
2279.860512  	0.010985 
2281.789328  	0.011192 
2283.718144  	0.011196 
2285.646960  	0.011289 
2287.575776  	0.011283 
2289.504592  	0.010936 
2291.433408  	0.010444 
2293.362224  	0.010333 
2295.291040  	0.010229 
2297.219856  	0.010463 
2299.148672  	0.010581 
2301.077488  	0.010280 
2303.006304  	0.010213 
2304.935120  	0.010124 
2306.863936  	0.009650 
2308.792752  	0.009211 
2310.721568  	0.009049 
2312.650384  	0.008915 
2314.579200  	0.008610 
2316.508016  	0.008470 
2318.436832  	0.007842 
2320.365648  	0.007223 
2322.294464  	0.006860 
2324.223280  	0.006264 
2326.152096  	0.004832 
2328.080912  	0.003675 
2330.009728  	0.002880 
2331.938544  	0.002370 
2333.867360  	0.001778 
2335.796176  	0.001496 
2337.724992  	0.001246 
2339.653808  	0.000911 
2341.582624  	0.000888 
2343.511440  	0.001889 
2345.440256  	0.003060 
2347.369072  	0.004973 
2349.297888  	0.005292 
2351.226704  	0.003496 
2353.155520  	0.001340 
2355.084336  	-0.000298 
2357.013152  	-0.001594 
2358.941968  	-0.002834 
2360.870784  	-0.003364 
2362.799600  	-0.002774 
2364.728416  	-0.002228 
2366.657232  	-0.000769 
2368.586048  	0.000917 
2370.514864  	0.003017 
2372.443680  	0.004707 
2374.372496  	0.006625 
2376.301312  	0.008114 
2378.230128  	0.009242 
2380.158944  	0.009932 
2382.087760  	0.010415 
2384.016576  	0.010921 
2385.945392  	0.011338 
2387.874208  	0.011190 
2389.803024  	0.011100 
2391.731840  	0.010983 
2393.660656  	0.011081 
2395.589472  	0.011214 
2397.518288  	0.011289 
2399.447104  	0.011322 
2401.375920  	0.011158 
2403.304736  	0.011196 
2405.233552  	0.011477 
2407.162368  	0.011663 
2409.091184  	0.011508 
2411.020000  	0.011400 
2412.948816  	0.011611 
2414.877632  	0.011649 
2416.806448  	0.011775 
2418.735264  	0.011834 
2420.664080  	0.011722 
2422.592896  	0.011626 
2424.521712  	0.011818 
2426.450528  	0.011910 
2428.379344  	0.011687 
2430.308160  	0.011797 
2432.236976  	0.012104 
2434.165792  	0.012388 
2436.094608  	0.012825 
2438.023424  	0.012846 
2439.952240  	0.012776 
2441.881056  	0.012862 
2443.809872  	0.012757 
2445.738688  	0.012667 
2447.667504  	0.012823 
2449.596320  	0.012775 
2451.525136  	0.012770 
2453.453952  	0.012779 
2455.382768  	0.013038 
2457.311584  	0.013442 
2459.240400  	0.013440 
2461.169216  	0.013264 
2463.098032  	0.013205 
2465.026848  	0.013145 
2466.955664  	0.012940 
2468.884480  	0.012872 
2470.813296  	0.013086 
2472.742112  	0.012846 
2474.670928  	0.012770 
2476.599744  	0.012970 
2478.528560  	0.013226 
2480.457376  	0.013407 
2482.386192  	0.013362 
2484.315008  	0.013368 
2486.243824  	0.013407 
2488.172640  	0.013342 
2490.101456  	0.013643 
2492.030272  	0.013902 
2493.959088  	0.013713 
2495.887904  	0.013458 
2497.816720  	0.013640 
2499.745536  	0.013748 
2501.674352  	0.013862 
2503.603168  	0.013891 
2505.531984  	0.014008 
2507.460800  	0.014069 
2509.389616  	0.013925 
2511.318432  	0.013645 
2513.247248  	0.013857 
2515.176064  	0.013984 
2517.104880  	0.014180 
2519.033696  	0.014400 
2520.962512  	0.014518 
2522.891328  	0.014579 
2524.820144  	0.014582 
2526.748960  	0.014503 
2528.677776  	0.014663 
2530.606592  	0.014748 
2532.535408  	0.014770 
2534.464224  	0.014965 
2536.393040  	0.014847 
2538.321856  	0.014629 
2540.250672  	0.014937 
2542.179488  	0.014976 
2544.108304  	0.015113 
2546.037120  	0.014933 
2547.965936  	0.015146 
2549.894752  	0.015510 
2551.823568  	0.015547 
2553.752384  	0.015530 
2555.681200  	0.015508 
2557.610016  	0.015415 
2559.538832  	0.015567 
2561.467648  	0.015728 
2563.396464  	0.015949 
2565.325280  	0.016176 
2567.254096  	0.016129 
2569.182912  	0.016011 
2571.111728  	0.016052 
2573.040544  	0.015837 
2574.969360  	0.015826 
2576.898176  	0.016234 
2578.826992  	0.016600 
2580.755808  	0.016641 
2582.684624  	0.016695 
2584.613440  	0.016658 
2586.542256  	0.016873 
2588.471072  	0.017048 
2590.399888  	0.016950 
2592.328704  	0.016995 
2594.257520  	0.017215 
2596.186336  	0.017509 
2598.115152  	0.017723 
2600.043968  	0.017606 
2601.972784  	0.017567 
2603.901600  	0.017716 
2605.830416  	0.017933 
2607.759232  	0.017818 
2609.688048  	0.017874 
2611.616864  	0.017894 
2613.545680  	0.018014 
2615.474496  	0.018178 
2617.403312  	0.018320 
2619.332128  	0.018642 
2621.260944  	0.018802 
2623.189760  	0.018770 
2625.118576  	0.018858 
2627.047392  	0.019013 
2628.976208  	0.019281 
2630.905024  	0.019394 
2632.833840  	0.019558 
2634.762656  	0.019752 
2636.691472  	0.019761 
2638.620288  	0.019745 
2640.549104  	0.019871 
2642.477920  	0.019974 
2644.406736  	0.020067 
2646.335552  	0.020332 
2648.264368  	0.020559 
2650.193184  	0.020618 
2652.122000  	0.020846 
2654.050816  	0.021105 
2655.979632  	0.021132 
2657.908448  	0.021125 
2659.837264  	0.021203 
2661.766080  	0.021201 
2663.694896  	0.021266 
2665.623712  	0.021172 
2667.552528  	0.021144 
2669.481344  	0.021319 
2671.410160  	0.021516 
2673.338976  	0.021708 
2675.267792  	0.021922 
2677.196608  	0.021962 
2679.125424  	0.022086 
2681.054240  	0.022235 
2682.983056  	0.022319 
2684.911872  	0.022452 
2686.840688  	0.022622 
2688.769504  	0.022761 
2690.698320  	0.022832 
2692.627136  	0.022916 
2694.555952  	0.023033 
2696.484768  	0.023037 
2698.413584  	0.023179 
2700.342400  	0.023301 
2702.271216  	0.023405 
2704.200032  	0.023608 
2706.128848  	0.023825 
2708.057664  	0.024075 
2709.986480  	0.024198 
2711.915296  	0.024231 
2713.844112  	0.024362 
2715.772928  	0.024601 
2717.701744  	0.024848 
2719.630560  	0.024934 
2721.559376  	0.025020 
2723.488192  	0.025170 
2725.417008  	0.025438 
2727.345824  	0.025652 
2729.274640  	0.025698 
2731.203456  	0.025755 
2733.132272  	0.025867 
2735.061088  	0.026123 
2736.989904  	0.026403 
2738.918720  	0.026458 
2740.847536  	0.026492 
2742.776352  	0.026712 
2744.705168  	0.026907 
2746.633984  	0.026983 
2748.562800  	0.027132 
2750.491616  	0.027336 
2752.420432  	0.027369 
2754.349248  	0.027370 
2756.278064  	0.027417 
2758.206880  	0.027457 
2760.135696  	0.027690 
2762.064512  	0.027845 
2763.993328  	0.027834 
2765.922144  	0.027835 
2767.850960  	0.027951 
2769.779776  	0.028072 
2771.708592  	0.028189 
2773.637408  	0.028249 
2775.566224  	0.028371 
2777.495040  	0.028527 
2779.423856  	0.028718 
2781.352672  	0.028874 
2783.281488  	0.028988 
2785.210304  	0.028955 
2787.139120  	0.029070 
2789.067936  	0.029262 
2790.996752  	0.029372 
2792.925568  	0.029596 
2794.854384  	0.029791 
2796.783200  	0.029925 
2798.712016  	0.029973 
2800.640832  	0.030044 
2802.569648  	0.030274 
2804.498464  	0.030393 
2806.427280  	0.030510 
2808.356096  	0.030689 
2810.284912  	0.030963 
2812.213728  	0.031026 
2814.142544  	0.031052 
2816.071360  	0.031358 
2818.000176  	0.031507 
2819.928992  	0.031539 
2821.857808  	0.031799 
2823.786624  	0.031975 
2825.715440  	0.032050 
2827.644256  	0.032075 
2829.573072  	0.032228 
2831.501888  	0.032384 
2833.430704  	0.032551 
2835.359520  	0.032688 
2837.288336  	0.032897 
2839.217152  	0.033256 
2841.145968  	0.033466 
2843.074784  	0.033573 
2845.003600  	0.034032 
2846.932416  	0.034680 
2848.861232  	0.035177 
2850.790048  	0.035777 
2852.718864  	0.036424 
2854.647680  	0.036974 
2856.576496  	0.037684 
2858.505312  	0.038448 
2860.434128  	0.039375 
2862.362944  	0.040179 
2864.291760  	0.040994 
2866.220576  	0.041927 
2868.149392  	0.042966 
2870.078208  	0.043891 
2872.007024  	0.044591 
2873.935840  	0.045318 
2875.864656  	0.046265 
2877.793472  	0.047526 
2879.722288  	0.048887 
2881.651104  	0.050227 
2883.579920  	0.051353 
2885.508736  	0.051987 
2887.437552  	0.052201 
2889.366368  	0.052405 
2891.295184  	0.053025 
2893.224000  	0.053513 
2895.152816  	0.053688 
2897.081632  	0.053963 
2899.010448  	0.055632 
2900.939264  	0.057367 
2902.868080  	0.056410 
2904.796896  	0.055406 
2906.725712  	0.055202 
2908.654528  	0.055135 
2910.583344  	0.055327 
2912.512160  	0.055449 
2914.440976  	0.055146 
2916.369792  	0.054981 
2918.298608  	0.055240 
2920.227424  	0.055807 
2922.156240  	0.056435 
2924.085056  	0.056730 
2926.013872  	0.057016 
2927.942688  	0.057406 
2929.871504  	0.057766 
2931.800320  	0.058132 
2933.729136  	0.058595 
2935.657952  	0.059046 
2937.586768  	0.059434 
2939.515584  	0.059797 
2941.444400  	0.060223 
2943.373216  	0.060695 
2945.302032  	0.060978 
2947.230848  	0.061050 
2949.159664  	0.061423 
2951.088480  	0.062163 
2953.017296  	0.062948 
2954.946112  	0.063460 
2956.874928  	0.063951 
2958.803744  	0.064344 
2960.732560  	0.064624 
2962.661376  	0.065126 
2964.590192  	0.065964 
2966.519008  	0.066949 
2968.447824  	0.067767 
2970.376640  	0.068281 
2972.305456  	0.068256 
2974.234272  	0.067579 
2976.163088  	0.067107 
2978.091904  	0.066793 
2980.020720  	0.066654 
2981.949536  	0.066409 
2983.878352  	0.066388 
2985.807168  	0.067137 
2987.735984  	0.068178 
2989.664800  	0.067752 
2991.593616  	0.064686 
2993.522432  	0.062824 
2995.451248  	0.062417 
2997.380064  	0.061886 
2999.308880  	0.060981 
3001.237696  	0.059870 
3003.166512  	0.058729 
3005.095328  	0.057672 
3007.024144  	0.056632 
3008.952960  	0.055392 
3010.881776  	0.054311 
3012.810592  	0.053490 
3014.739408  	0.052625 
3016.668224  	0.051829 
3018.597040  	0.051013 
3020.525856  	0.050151 
3022.454672  	0.049470 
3024.383488  	0.048912 
3026.312304  	0.048475 
3028.241120  	0.047987 
3030.169936  	0.047273 
3032.098752  	0.046928 
3034.027568  	0.046619 
3035.956384  	0.046286 
3037.885200  	0.046127 
3039.814016  	0.046130 
3041.742832  	0.046288 
3043.671648  	0.046422 
3045.600464  	0.046380 
3047.529280  	0.046339 
3049.458096  	0.046441 
3051.386912  	0.046432 
3053.315728  	0.046627 
3055.244544  	0.046976 
3057.173360  	0.047330 
3059.102176  	0.047618 
3061.030992  	0.047858 
3062.959808  	0.048161 
3064.888624  	0.048533 
3066.817440  	0.048981 
3068.746256  	0.049409 
3070.675072  	0.049649 
3072.603888  	0.049999 
3074.532704  	0.050534 
3076.461520  	0.050924 
3078.390336  	0.051133 
3080.319152  	0.051514 
3082.247968  	0.052093 
3084.176784  	0.052561 
3086.105600  	0.052876 
3088.034416  	0.053230 
3089.963232  	0.053637 
3091.892048  	0.053916 
3093.820864  	0.054284 
3095.749680  	0.054724 
3097.678496  	0.054788 
3099.607312  	0.054973 
3101.536128  	0.055322 
3103.464944  	0.055858 
3105.393760  	0.056338 
3107.322576  	0.056770 
3109.251392  	0.057095 
3111.180208  	0.057273 
3113.109024  	0.057450 
3115.037840  	0.057745 
3116.966656  	0.058175 
3118.895472  	0.058408 
3120.824288  	0.058554 
3122.753104  	0.058866 
3124.681920  	0.059184 
3126.610736  	0.059390 
3128.539552  	0.059672 
3130.468368  	0.059902 
3132.397184  	0.060049 
3134.326000  	0.060298 
3136.254816  	0.060659 
3138.183632  	0.060931 
3140.112448  	0.061008 
3142.041264  	0.061163 
3143.970080  	0.061523 
3145.898896  	0.061771 
3147.827712  	0.061932 
3149.756528  	0.062219 
3151.685344  	0.062676 
3153.614160  	0.063088 
3155.542976  	0.063343 
3157.471792  	0.063528 
3159.400608  	0.063905 
3161.329424  	0.064266 
3163.258240  	0.064603 
3165.187056  	0.064827 
3167.115872  	0.065032 
3169.044688  	0.065296 
3170.973504  	0.065353 
3172.902320  	0.065548 
3174.831136  	0.065856 
3176.759952  	0.066065 
3178.688768  	0.066300 
3180.617584  	0.066420 
3182.546400  	0.066291 
3184.475216  	0.066588 
3186.404032  	0.066849 
3188.332848  	0.066897 
3190.261664  	0.067188 
3192.190480  	0.067304 
3194.119296  	0.066995 
3196.048112  	0.066955 
3197.976928  	0.067221 
3199.905744  	0.067144 
3201.834560  	0.067009 
3203.763376  	0.067101 
3205.692192  	0.067149 
3207.621008  	0.067182 
3209.549824  	0.067068 
3211.478640  	0.066884 
3213.407456  	0.066640 
3215.336272  	0.066533 
3217.265088  	0.066449 
3219.193904  	0.066146 
3221.122720  	0.065773 
3223.051536  	0.065664 
3224.980352  	0.065520 
3226.909168  	0.065138 
3228.837984  	0.064642 
3230.766800  	0.064677 
3232.695616  	0.064955 
3234.624432  	0.064913 
3236.553248  	0.064733 
3238.482064  	0.064670 
3240.410880  	0.064568 
3242.339696  	0.064418 
3244.268512  	0.064398 
3246.197328  	0.064493 
3248.126144  	0.064367 
3250.054960  	0.064265 
3251.983776  	0.064189 
3253.912592  	0.064257 
3255.841408  	0.064530 
3257.770224  	0.064659 
3259.699040  	0.064671 
3261.627856  	0.064731 
3263.556672  	0.064854 
3265.485488  	0.064767 
3267.414304  	0.064794 
3269.343120  	0.065033 
3271.271936  	0.065186 
3273.200752  	0.065444 
3275.129568  	0.065639 
3277.058384  	0.065731 
3278.987200  	0.065689 
3280.916016  	0.065703 
3282.844832  	0.065690 
3284.773648  	0.065787 
3286.702464  	0.065763 
3288.631280  	0.066020 
3290.560096  	0.066339 
3292.488912  	0.066713 
3294.417728  	0.067005 
3296.346544  	0.067191 
3298.275360  	0.067217 
3300.204176  	0.067306 
3302.132992  	0.067395 
3304.061808  	0.067694 
3305.990624  	0.068109 
3307.919440  	0.068154 
3309.848256  	0.068227 
3311.777072  	0.068339 
3313.705888  	0.068609 
3315.634704  	0.069026 
3317.563520  	0.069210 
3319.492336  	0.069357 
3321.421152  	0.069464 
3323.349968  	0.069610 
3325.278784  	0.069919 
3327.207600  	0.070017 
3329.136416  	0.070028 
3331.065232  	0.069968 
3332.994048  	0.070051 
3334.922864  	0.069968 
3336.851680  	0.069715 
3338.780496  	0.069683 
3340.709312  	0.069759 
3342.638128  	0.069801 
3344.566944  	0.069591 
3346.495760  	0.069300 
3348.424576  	0.069164 
3350.353392  	0.068988 
3352.282208  	0.068787 
3354.211024  	0.068614 
3356.139840  	0.068436 
3358.068656  	0.068162 
3359.997472  	0.067817 
3361.926288  	0.067566 
3363.855104  	0.067255 
3365.783920  	0.066995 
3367.712736  	0.066991 
3369.641552  	0.066707 
3371.570368  	0.066286 
3373.499184  	0.066051 
3375.428000  	0.065719 
3377.356816  	0.065421 
3379.285632  	0.065016 
3381.214448  	0.064805 
3383.143264  	0.064642 
3385.072080  	0.064466 
3387.000896  	0.064190 
3388.929712  	0.063887 
3390.858528  	0.063468 
3392.787344  	0.063226 
3394.716160  	0.062875 
3396.644976  	0.062480 
3398.573792  	0.062205 
3400.502608  	0.061764 
3402.431424  	0.061363 
3404.360240  	0.061174 
3406.289056  	0.060813 
3408.217872  	0.060382 
3410.146688  	0.060088 
3412.075504  	0.060090 
3414.004320  	0.059952 
3415.933136  	0.059393 
3417.861952  	0.058797 
3419.790768  	0.058557 
3421.719584  	0.058255 
3423.648400  	0.057681 
3425.577216  	0.057364 
3427.506032  	0.057193 
3429.434848  	0.056641 
3431.363664  	0.056250 
3433.292480  	0.056140 
3435.221296  	0.055930 
3437.150112  	0.055445 
3439.078928  	0.055127 
3441.007744  	0.054797 
3442.936560  	0.054511 
3444.865376  	0.054020 
3446.794192  	0.053271 
3448.723008  	0.052959 
3450.651824  	0.052512 
3452.580640  	0.052047 
3454.509456  	0.051683 
3456.438272  	0.051236 
3458.367088  	0.050955 
3460.295904  	0.050677 
3462.224720  	0.050150 
3464.153536  	0.049623 
3466.082352  	0.049292 
3468.011168  	0.048896 
3469.939984  	0.048519 
3471.868800  	0.048017 
3473.797616  	0.047450 
3475.726432  	0.046850 
3477.655248  	0.046278 
3479.584064  	0.045711 
3481.512880  	0.045189 
3483.441696  	0.044723 
3485.370512  	0.044076 
3487.299328  	0.043627 
3489.228144  	0.043254 
3491.156960  	0.042703 
3493.085776  	0.042221 
3495.014592  	0.041743 
3496.943408  	0.041394 
3498.872224  	0.040803 
3500.801040  	0.040213 
3502.729856  	0.039850 
3504.658672  	0.039502 
3506.587488  	0.039001 
3508.516304  	0.038489 
3510.445120  	0.038373 
3512.373936  	0.038256 
3514.302752  	0.037845 
3516.231568  	0.037459 
3518.160384  	0.036853 
3520.089200  	0.036385 
3522.018016  	0.035722 
3523.946832  	0.035246 
3525.875648  	0.034937 
3527.804464  	0.034480 
3529.733280  	0.034325 
3531.662096  	0.034153 
3533.590912  	0.033824 
3535.519728  	0.033448 
3537.448544  	0.033240 
3539.377360  	0.032891 
3541.306176  	0.032250 
3543.234992  	0.031410 
3545.163808  	0.031062 
3547.092624  	0.030936 
3549.021440  	0.030551 
3550.950256  	0.029901 
3552.879072  	0.029801 
3554.807888  	0.030043 
3556.736704  	0.029708 
3558.665520  	0.029144 
3560.594336  	0.028701 
3562.523152  	0.028088 
3564.451968  	0.027122 
3566.380784  	0.025933 
3568.309600  	0.026257 
3570.238416  	0.026811 
3572.167232  	0.026321 
3574.096048  	0.025568 
3576.024864  	0.025117 
3577.953680  	0.024800 
3579.882496  	0.024461 
3581.811312  	0.024197 
3583.740128  	0.023599 
3585.668944  	0.022289 
3587.597760  	0.021689 
3589.526576  	0.022242 
3591.455392  	0.021716 
3593.384208  	0.020906 
3595.313024  	0.020335 
3597.241840  	0.019946 
3599.170656  	0.019253 
3601.099472  	0.018839 
3603.028288  	0.018945 
3604.957104  	0.018386 
3606.885920  	0.017185 
3608.814736  	0.016985 
3610.743552  	0.016726 
3612.672368  	0.015595 
3614.601184  	0.015505 
3616.530000  	0.014844 
3618.458816  	0.013863 
3620.387632  	0.014355 
3622.316448  	0.014783 
3624.245264  	0.014546 
3626.174080  	0.013081 
3628.102896  	0.010903 
3630.031712  	0.012203 
3631.960528  	0.013067 
3633.889344  	0.012535 
3635.818160  	0.012527 
3637.746976  	0.012640 
3639.675792  	0.012789 
3641.604608  	0.012704 
3643.533424  	0.012500 
3645.462240  	0.010916 
3647.391056  	0.008951 
3649.319872  	0.008628 
3651.248688  	0.010693 
3653.177504  	0.011810 
3655.106320  	0.011158 
3657.035136  	0.011978 
3658.963952  	0.012668 
3660.892768  	0.012271 
3662.821584  	0.012019 
3664.750400  	0.011713 
3666.679216  	0.010592 
3668.608032  	0.008451 
3670.536848  	0.008321 
3672.465664  	0.009400 
3674.394480  	0.007964 
3676.323296  	0.009223 
3678.252112  	0.009532 
3680.180928  	0.008967 
3682.109744  	0.009411 
3684.038560  	0.009479 
3685.967376  	0.008201 
3687.896192  	0.006057 
3689.825008  	0.005802 
3691.753824  	0.006929 
3693.682640  	0.007537 
3695.611456  	0.006807 
3697.540272  	0.006072 
3699.469088  	0.005299 
3701.397904  	0.004727 
3703.326720  	0.004907 
3705.255536  	0.004490 
3707.184352  	0.003178 
3709.113168  	0.001756 
3711.041984  	0.000923 
3712.970800  	0.002305 
3714.899616  	0.003412 
3716.828432  	0.003137 
3718.757248  	0.002353 
3720.686064  	0.001586 
3722.614880  	0.001510 
3724.543696  	0.001666 
3726.472512  	0.001776 
3728.401328  	0.002059 
3730.330144  	0.000854 
3732.258960  	-0.000354 
3734.187776  	-0.000503 
3736.116592  	0.000573 
3738.045408  	0.001528 
3739.974224  	0.001351 
3741.903040  	0.000715 
3743.831856  	0.000023 
3745.760672  	0.001484 
3747.689488  	0.000404 
3749.618304  	-0.001305 
3751.547120  	-0.000467 
3753.475936  	0.001976 
3755.404752  	0.002418 
3757.333568  	0.001637 
3759.262384  	0.001483 
3761.191200  	0.002625 
3763.120016  	0.002839 
3765.048832  	0.002140 
3766.977648  	0.002203 
3768.906464  	0.001802 
3770.835280  	0.002351 
3772.764096  	0.003113 
3774.692912  	0.003223 
3776.621728  	0.002664 
3778.550544  	0.002035 
3780.479360  	0.002689 
3782.408176  	0.002989 
3784.336992  	0.002403 
3786.265808  	0.002482 
3788.194624  	0.002830 
3790.123440  	0.003022 
3792.052256  	0.002952 
3793.981072  	0.002460 
3795.909888  	0.001783 
3797.838704  	0.001906 
3799.767520  	0.000722 
3801.696336  	0.000532 
3803.625152  	0.002113 
3805.553968  	0.001413 
3807.482784  	0.001764 
3809.411600  	0.003075 
3811.340416  	0.003244 
3813.269232  	0.002473 
3815.198048  	0.000841 
3817.126864  	0.001302 
3819.055680  	0.000689 
3820.984496  	0.000235 
3822.913312  	0.002307 
3824.842128  	0.002260 
3826.770944  	0.002054 
3828.699760  	0.002513 
3830.628576  	0.001983 
3832.557392  	0.001913 
3834.486208  	0.001454 
3836.415024  	0.000445 
3838.343840  	0.000637 
3840.272656  	0.001408 
3842.201472  	0.001683 
3844.130288  	0.002146 
3846.059104  	0.002919 
3847.987920  	0.002684 
3849.916736  	0.001649 
3851.845552  	-0.000609 
3853.774368  	-0.000280 
3855.703184  	0.002297 
3857.632000  	0.002603 
3859.560816  	0.002500 
3861.489632  	0.001887 
3863.418448  	0.001390 
3865.347264  	0.001918 
3867.276080  	0.002074 
3869.204896  	0.000968 
3871.133712  	0.002217 
3873.062528  	0.002167 
3874.991344  	0.002651 
3876.920160  	0.003091 
3878.848976  	0.002161 
3880.777792  	0.002258 
3882.706608  	0.003104 
3884.635424  	0.002453 
3886.564240  	0.002906 
3888.493056  	0.003022 
3890.421872  	0.002229 
3892.350688  	0.002603 
3894.279504  	0.003067 
3896.208320  	0.002833 
3898.137136  	0.002023 
3900.065952  	0.001586 
3901.994768  	0.001568 
3903.923584  	0.001894 
3905.852400  	0.002991 
3907.781216  	0.003429 
3909.710032  	0.003378 
3911.638848  	0.003290 
3913.567664  	0.003121 
3915.496480  	0.002824 
3917.425296  	0.003186 
3919.354112  	0.003330 
3921.282928  	0.003208 
3923.211744  	0.002864 
3925.140560  	0.002910 
3927.069376  	0.003139 
3928.998192  	0.002831 
3930.927008  	0.002753 
3932.855824  	0.003185 
3934.784640  	0.003457 
3936.713456  	0.003456 
3938.642272  	0.003396 
3940.571088  	0.003036 
3942.499904  	0.002986 
3944.428720  	0.003336 
3946.357536  	0.003250 
3948.286352  	0.003075 
3950.215168  	0.003054 
3952.143984  	0.003252 
3954.072800  	0.003361 
3956.001616  	0.003159 
3957.930432  	0.003356 
3959.859248  	0.003602 
3961.788064  	0.003470 
3963.716880  	0.003579 
3965.645696  	0.003669 
3967.574512  	0.003692 
3969.503328  	0.003644 
3971.432144  	0.003535 
3973.360960  	0.003552 
3975.289776  	0.003671 
3977.218592  	0.003684 
3979.147408  	0.003703 
3981.076224  	0.003635 
3983.005040  	0.003584 
3984.933856  	0.003656 
3986.862672  	0.003764 
3988.791488  	0.003676 
3990.720304  	0.003739 
3992.649120  	0.003804 
3994.577936  	0.003583 
3996.506752  	0.003382 
3998.435568  	0.003546 
4000.364384  	0.003700 