##TITLE=No Description
##DATA TYPE=INFRARED SPECTRUM
##XUNITS=1/CM
##YUNITS=Abs
399.264912  	0.586211 
401.193728  	0.583298 
403.122544  	0.572900 
405.051360  	0.562692 
406.980176  	0.552924 
408.908992  	0.548008 
410.837808  	0.563101 
412.766624  	0.559887 
414.695440  	0.548370 
416.624256  	0.537584 
418.553072  	0.547905 
420.481888  	0.541209 
422.410704  	0.532111 
424.339520  	0.522024 
426.268336  	0.529160 
428.197152  	0.530074 
430.125968  	0.530926 
432.054784  	0.524161 
433.983600  	0.520798 
435.912416  	0.512724 
437.841232  	0.513699 
439.770048  	0.518953 
441.698864  	0.517084 
443.627680  	0.504681 
445.556496  	0.504773 
447.485312  	0.505463 
449.414128  	0.505653 
451.342944  	0.505301 
453.271760  	0.503801 
455.200576  	0.493985 
457.129392  	0.492612 
459.058208  	0.492395 
460.987024  	0.497657 
462.915840  	0.498769 
464.844656  	0.502697 
466.773472  	0.500911 
468.702288  	0.493820 
470.631104  	0.487359 
472.559920  	0.489653 
474.488736  	0.493033 
476.417552  	0.500246 
478.346368  	0.498830 
480.275184  	0.496959 
482.204000  	0.496231 
484.132816  	0.496145 
486.061632  	0.495031 
487.990448  	0.497150 
489.919264  	0.495201 
491.848080  	0.495924 
493.776896  	0.494521 
495.705712  	0.493801 
497.634528  	0.490239 
499.563344  	0.487432 
501.492160  	0.485146 
503.420976  	0.486069 
505.349792  	0.484520 
507.278608  	0.485240 
509.207424  	0.485804 
511.136240  	0.486291 
513.065056  	0.486379 
514.993872  	0.489316 
516.922688  	0.490732 
518.851504  	0.491114 
520.780320  	0.488222 
522.709136  	0.489727 
524.637952  	0.488905 
526.566768  	0.486411 
528.495584  	0.481662 
530.424400  	0.478484 
532.353216  	0.476077 
534.282032  	0.472750 
536.210848  	0.467928 
538.139664  	0.464437 
540.068480  	0.459174 
541.997296  	0.456544 
543.926112  	0.453776 
545.854928  	0.450365 
547.783744  	0.445111 
549.712560  	0.441667 
551.641376  	0.438011 
553.570192  	0.435120 
555.499008  	0.430588 
557.427824  	0.426605 
559.356640  	0.423098 
561.285456  	0.420603 
563.214272  	0.417153 
565.143088  	0.413227 
567.071904  	0.408119 
569.000720  	0.405093 
570.929536  	0.401960 
572.858352  	0.399837 
574.787168  	0.396941 
576.715984  	0.392885 
578.644800  	0.388855 
580.573616  	0.385220 
582.502432  	0.380422 
584.431248  	0.378166 
586.360064  	0.376056 
588.288880  	0.373997 
590.217696  	0.371697 
592.146512  	0.369546 
594.075328  	0.367512 
596.004144  	0.365222 
597.932960  	0.363229 
599.861776  	0.362842 
601.790592  	0.361769 
603.719408  	0.360083 
605.648224  	0.358172 
607.577040  	0.357930 
609.505856  	0.357791 
611.434672  	0.357119 
613.363488  	0.354574 
615.292304  	0.352570 
617.221120  	0.350186 
619.149936  	0.348859 
621.078752  	0.347234 
623.007568  	0.345660 
624.936384  	0.343593 
626.865200  	0.342693 
628.794016  	0.341680 
630.722832  	0.340316 
632.651648  	0.338974 
634.580464  	0.338607 
636.509280  	0.339081 
638.438096  	0.338842 
640.366912  	0.338392 
642.295728  	0.337788 
644.224544  	0.335035 
646.153360  	0.331783 
648.082176  	0.328264 
650.010992  	0.325006 
651.939808  	0.321350 
653.868624  	0.318273 
655.797440  	0.314252 
657.726256  	0.310624 
659.655072  	0.307020 
661.583888  	0.303812 
663.512704  	0.300362 
665.441520  	0.297303 
667.370336  	0.292380 
669.299152  	0.287652 
671.227968  	0.286081 
673.156784  	0.283500 
675.085600  	0.281455 
677.014416  	0.280566 
678.943232  	0.279579 
680.872048  	0.277676 
682.800864  	0.275870 
684.729680  	0.274567 
686.658496  	0.272800 
688.587312  	0.270658 
690.516128  	0.268706 
692.444944  	0.267517 
694.373760  	0.266240 
696.302576  	0.264733 
698.231392  	0.262513 
700.160208  	0.260020 
702.089024  	0.257537 
704.017840  	0.255995 
705.946656  	0.253636 
707.875472  	0.250729 
709.804288  	0.248584 
711.733104  	0.246979 
713.661920  	0.245660 
715.590736  	0.245185 
717.519552  	0.245283 
719.448368  	0.245939 
721.377184  	0.247011 
723.306000  	0.248019 
725.234816  	0.248127 
727.163632  	0.246964 
729.092448  	0.244363 
731.021264  	0.241662 
732.950080  	0.238862 
734.878896  	0.236167 
736.807712  	0.233431 
738.736528  	0.231487 
740.665344  	0.230302 
742.594160  	0.229094 
744.522976  	0.227416 
746.451792  	0.226236 
748.380608  	0.225432 
750.309424  	0.224891 
752.238240  	0.224770 
754.167056  	0.224434 
756.095872  	0.223351 
758.024688  	0.222442 
759.953504  	0.222329 
761.882320  	0.222707 
763.811136  	0.223146 
765.739952  	0.223057 
767.668768  	0.221981 
769.597584  	0.220638 
771.526400  	0.220520 
773.455216  	0.222355 
775.384032  	0.225404 
777.312848  	0.229631 
779.241664  	0.233792 
781.170480  	0.234811 
783.099296  	0.231711 
785.028112  	0.226309 
786.956928  	0.220346 
788.885744  	0.215496 
790.814560  	0.211983 
792.743376  	0.209638 
794.672192  	0.208096 
796.601008  	0.207407 
798.529824  	0.205550 
800.458640  	0.202237 
802.387456  	0.198999 
804.316272  	0.197550 
806.245088  	0.196880 
808.173904  	0.196562 
810.102720  	0.196738 
812.031536  	0.196963 
813.960352  	0.196775 
815.889168  	0.196718 
817.817984  	0.196942 
819.746800  	0.197193 
821.675616  	0.196946 
823.604432  	0.196503 
825.533248  	0.195688 
827.462064  	0.194653 
829.390880  	0.193692 
831.319696  	0.192533 
833.248512  	0.190983 
835.177328  	0.188984 
837.106144  	0.186582 
839.034960  	0.183819 
840.963776  	0.181041 
842.892592  	0.178266 
844.821408  	0.175261 
846.750224  	0.172728 
848.679040  	0.170732 
850.607856  	0.168631 
852.536672  	0.166911 
854.465488  	0.165446 
856.394304  	0.164211 
858.323120  	0.162746 
860.251936  	0.160962 
862.180752  	0.158837 
864.109568  	0.157126 
866.038384  	0.155819 
867.967200  	0.154392 
869.896016  	0.152891 
871.824832  	0.151624 
873.753648  	0.151023 
875.682464  	0.151224 
877.611280  	0.151544 
879.540096  	0.151878 
881.468912  	0.152915 
883.397728  	0.153660 
885.326544  	0.153880 
887.255360  	0.153661 
889.184176  	0.153018 
891.112992  	0.151666 
893.041808  	0.150179 
894.970624  	0.148216 
896.899440  	0.145561 
898.828256  	0.142128 
900.757072  	0.138625 
902.685888  	0.135596 
904.614704  	0.133823 
906.543520  	0.133613 
908.472336  	0.134947 
910.401152  	0.137251 
912.329968  	0.140134 
914.258784  	0.143368 
916.187600  	0.146220 
918.116416  	0.148196 
920.045232  	0.148961 
921.974048  	0.148526 
923.902864  	0.147735 
925.831680  	0.146681 
927.760496  	0.145657 
929.689312  	0.144791 
931.618128  	0.144736 
933.546944  	0.145146 
935.475760  	0.145404 
937.404576  	0.145710 
939.333392  	0.146469 
941.262208  	0.147759 
943.191024  	0.150181 
945.119840  	0.154262 
947.048656  	0.159352 
948.977472  	0.165428 
950.906288  	0.172520 
952.835104  	0.180171 
954.763920  	0.187803 
956.692736  	0.194867 
958.621552  	0.200497 
960.550368  	0.203970 
962.479184  	0.205324 
964.408000  	0.203680 
966.336816  	0.199597 
968.265632  	0.193033 
970.194448  	0.184634 
972.123264  	0.175046 
974.052080  	0.165008 
975.980896  	0.155254 
977.909712  	0.146193 
979.838528  	0.138460 
981.767344  	0.132326 
983.696160  	0.128035 
985.624976  	0.125908 
987.553792  	0.126131 
989.482608  	0.128667 
991.411424  	0.133006 
993.340240  	0.138785 
995.269056  	0.145874 
997.197872  	0.153481 
999.126688  	0.160753 
1001.055504  	0.168108 
1002.984320  	0.175164 
1004.913136  	0.181800 
1006.841952  	0.187573 
1008.770768  	0.192556 
1010.699584  	0.196428 
1012.628400  	0.199002 
1014.557216  	0.200269 
1016.486032  	0.200967 
1018.414848  	0.201585 
1020.343664  	0.202232 
1022.272480  	0.202206 
1024.201296  	0.202073 
1026.130112  	0.201521 
1028.058928  	0.201984 
1029.987744  	0.203650 
1031.916560  	0.205619 
1033.845376  	0.207946 
1035.774192  	0.210797 
1037.703008  	0.214197 
1039.631824  	0.219434 
1041.560640  	0.226610 
1043.489456  	0.235819 
1045.418272  	0.246920 
1047.347088  	0.259932 
1049.275904  	0.273611 
1051.204720  	0.286794 
1053.133536  	0.297584 
1055.062352  	0.305773 
1056.991168  	0.310212 
1058.919984  	0.312725 
1060.848800  	0.312924 
1062.777616  	0.311240 
1064.706432  	0.307188 
1066.635248  	0.302403 
1068.564064  	0.297460 
1070.492880  	0.291886 
1072.421696  	0.285390 
1074.350512  	0.279560 
1076.279328  	0.274444 
1078.208144  	0.270938 
1080.136960  	0.268063 
1082.065776  	0.265806 
1083.994592  	0.263368 
1085.923408  	0.260722 
1087.852224  	0.256934 
1089.781040  	0.252761 
1091.709856  	0.247086 
1093.638672  	0.240004 
1095.567488  	0.231427 
1097.496304  	0.222609 
1099.425120  	0.213014 
1101.353936  	0.202966 
1103.282752  	0.192998 
1105.211568  	0.182864 
1107.140384  	0.172813 
1109.069200  	0.163200 
1110.998016  	0.154082 
1112.926832  	0.145465 
1114.855648  	0.137015 
1116.784464  	0.128881 
1118.713280  	0.121595 
1120.642096  	0.114963 
1122.570912  	0.108699 
1124.499728  	0.102708 
1126.428544  	0.096883 
1128.357360  	0.091461 
1130.286176  	0.086894 
1132.214992  	0.082928 
1134.143808  	0.079337 
1136.072624  	0.076144 
1138.001440  	0.073093 
1139.930256  	0.069974 
1141.859072  	0.067387 
1143.787888  	0.064883 
1145.716704  	0.062601 
1147.645520  	0.060936 
1149.574336  	0.059647 
1151.503152  	0.058730 
1153.431968  	0.058457 
1155.360784  	0.058435 
1157.289600  	0.059028 
1159.218416  	0.060035 
1161.147232  	0.061364 
1163.076048  	0.062839 
1165.004864  	0.064809 
1166.933680  	0.066722 
1168.862496  	0.068915 
1170.791312  	0.071456 
1172.720128  	0.073958 
1174.648944  	0.076468 
1176.577760  	0.079280 
1178.506576  	0.081974 
1180.435392  	0.084605 
1182.364208  	0.087233 
1184.293024  	0.090137 
1186.221840  	0.093123 
1188.150656  	0.096420 
1190.079472  	0.100132 
1192.008288  	0.104590 
1193.937104  	0.109965 
1195.865920  	0.116174 
1197.794736  	0.122555 
1199.723552  	0.129356 
1201.652368  	0.136360 
1203.581184  	0.143463 
1205.510000  	0.150610 
1207.438816  	0.157774 
1209.367632  	0.164744 
1211.296448  	0.171272 
1213.225264  	0.177044 
1215.154080  	0.181642 
1217.082896  	0.185510 
1219.011712  	0.188434 
1220.940528  	0.191007 
1222.869344  	0.193066 
1224.798160  	0.194284 
1226.726976  	0.194932 
1228.655792  	0.195397 
1230.584608  	0.195107 
1232.513424  	0.194035 
1234.442240  	0.191806 
1236.371056  	0.188842 
1238.299872  	0.184965 
1240.228688  	0.179925 
1242.157504  	0.174173 
1244.086320  	0.168330 
1246.015136  	0.161620 
1247.943952  	0.154753 
1249.872768  	0.147653 
1251.801584  	0.141069 
1253.730400  	0.134584 
1255.659216  	0.128101 
1257.588032  	0.121728 
1259.516848  	0.115872 
1261.445664  	0.110612 
1263.374480  	0.105767 
1265.303296  	0.101351 
1267.232112  	0.097603 
1269.160928  	0.094835 
1271.089744  	0.092915 
1273.018560  	0.091880 
1274.947376  	0.091500 
1276.876192  	0.091161 
1278.805008  	0.090292 
1280.733824  	0.088527 
1282.662640  	0.085669 
1284.591456  	0.082034 
1286.520272  	0.078320 
1288.449088  	0.075264 
1290.377904  	0.072850 
1292.306720  	0.070976 
1294.235536  	0.068765 
1296.164352  	0.065759 
1298.093168  	0.062273 
1300.021984  	0.058828 
1301.950800  	0.055631 
1303.879616  	0.052906 
1305.808432  	0.050641 
1307.737248  	0.048788 
1309.666064  	0.047164 
1311.594880  	0.046241 
1313.523696  	0.045749 
1315.452512  	0.045548 
1317.381328  	0.045714 
1319.310144  	0.046304 
1321.238960  	0.047089 
1323.167776  	0.047972 
1325.096592  	0.048625 
1327.025408  	0.048857 
1328.954224  	0.048530 
1330.883040  	0.047858 
1332.811856  	0.046952 
1334.740672  	0.046031 
1336.669488  	0.045060 
1338.598304  	0.044410 
1340.527120  	0.043980 
1342.455936  	0.043553 
1344.384752  	0.043419 
1346.313568  	0.044043 
1348.242384  	0.045264 
1350.171200  	0.047031 
1352.100016  	0.048949 
1354.028832  	0.050821 
1355.957648  	0.052935 
1357.886464  	0.055013 
1359.815280  	0.056554 
1361.744096  	0.058018 
1363.672912  	0.059963 
1365.601728  	0.061255 
1367.530544  	0.061814 
1369.459360  	0.061984 
1371.388176  	0.061340 
1373.316992  	0.059906 
1375.245808  	0.058190 
1377.174624  	0.056530 
1379.103440  	0.054615 
1381.032256  	0.052789 
1382.961072  	0.051271 
1384.889888  	0.050126 
1386.818704  	0.049160 
1388.747520  	0.048319 
1390.676336  	0.046856 
1392.605152  	0.044931 
1394.533968  	0.043883 
1396.462784  	0.044893 
1398.391600  	0.045359 
1400.320416  	0.046265 
1402.249232  	0.046882 
1404.178048  	0.047739 
1406.106864  	0.049290 
1408.035680  	0.051171 
1409.964496  	0.053038 
1411.893312  	0.055294 
1413.822128  	0.057246 
1415.750944  	0.058684 
1417.679760  	0.059010 
1419.608576  	0.059338 
1421.537392  	0.059354 
1423.466208  	0.058464 
1425.395024  	0.057282 
1427.323840  	0.055545 
1429.252656  	0.053434 
1431.181472  	0.052296 
1433.110288  	0.051895 
1435.039104  	0.051435 
1436.967920  	0.051898 
1438.896736  	0.053165 
1440.825552  	0.053713 
1442.754368  	0.054317 
1444.683184  	0.054351 
1446.612000  	0.054048 
1448.540816  	0.054122 
1450.469632  	0.054643 
1452.398448  	0.054803 
1454.327264  	0.054287 
1456.256080  	0.053090 
1458.184896  	0.054146 
1460.113712  	0.055636 
1462.042528  	0.056199 
1463.971344  	0.056216 
1465.900160  	0.058359 
1467.828976  	0.060808 
1469.757792  	0.062766 
1471.686608  	0.064788 
1473.615424  	0.069965 
1475.544240  	0.074178 
1477.473056  	0.077460 
1479.401872  	0.078685 
1481.330688  	0.079186 
1483.259504  	0.079258 
1485.188320  	0.078234 
1487.117136  	0.075871 
1489.045952  	0.073414 
1490.974768  	0.070954 
1492.903584  	0.068363 
1494.832400  	0.064523 
1496.761216  	0.060149 
1498.690032  	0.056842 
1500.618848  	0.054755 
1502.547664  	0.052337 
1504.476480  	0.048708 
1506.405296  	0.044800 
1508.334112  	0.045636 
1510.262928  	0.045825 
1512.191744  	0.044909 
1514.120560  	0.043643 
1516.049376  	0.042789 
1517.978192  	0.043164 
1519.907008  	0.043546 
1521.835824  	0.045579 
1523.764640  	0.049091 
1525.693456  	0.051826 
1527.622272  	0.054641 
1529.551088  	0.056287 
1531.479904  	0.056206 
1533.408720  	0.055089 
1535.337536  	0.054654 
1537.266352  	0.051840 
1539.195168  	0.046593 
1541.123984  	0.044282 
1543.052800  	0.045131 
1544.981616  	0.045060 
1546.910432  	0.044707 
1548.839248  	0.043759 
1550.768064  	0.043805 
1552.696880  	0.043509 
1554.625696  	0.043731 
1556.554512  	0.042588 
1558.483328  	0.041344 
1560.412144  	0.048548 
1562.340960  	0.052485 
1564.269776  	0.054729 
1566.198592  	0.058679 
1568.127408  	0.061306 
1570.056224  	0.066456 
1571.985040  	0.071563 
1573.913856  	0.073408 
1575.842672  	0.074417 
1577.771488  	0.077625 
1579.700304  	0.078311 
1581.629120  	0.078395 
1583.557936  	0.078740 
1585.486752  	0.080334 
1587.415568  	0.083007 
1589.344384  	0.087191 
1591.273200  	0.092023 
1593.202016  	0.097568 
1595.130832  	0.102992 
1597.059648  	0.108464 
1598.988464  	0.112441 
1600.917280  	0.115588 
1602.846096  	0.117323 
1604.774912  	0.118466 
1606.703728  	0.117964 
1608.632544  	0.117278 
1610.561360  	0.116439 
1612.490176  	0.116240 
1614.418992  	0.115177 
1616.347808  	0.115700 
1618.276624  	0.119735 
1620.205440  	0.123696 
1622.134256  	0.127041 
1624.063072  	0.134255 
1625.991888  	0.140853 
1627.920704  	0.147863 
1629.849520  	0.156203 
1631.778336  	0.163014 
1633.707152  	0.166966 
1635.635968  	0.173209 
1637.564784  	0.181770 
1639.493600  	0.186728 
1641.422416  	0.190282 
1643.351232  	0.192159 
1645.280048  	0.191380 
1647.208864  	0.192103 
1649.137680  	0.193230 
1651.066496  	0.190732 
1652.995312  	0.186440 
1654.924128  	0.189234 
1656.852944  	0.188596 
1658.781760  	0.186712 
1660.710576  	0.184106 
1662.639392  	0.181984 
1664.568208  	0.180935 
1666.497024  	0.178950 
1668.425840  	0.175884 
1670.354656  	0.174484 
1672.283472  	0.174056 
1674.212288  	0.172730 
1676.141104  	0.173022 
1678.069920  	0.173569 
1679.998736  	0.173121 
1681.927552  	0.171721 
1683.856368  	0.169797 
1685.785184  	0.172792 
1687.714000  	0.172705 
1689.642816  	0.171295 
1691.571632  	0.169267 
1693.500448  	0.166176 
1695.429264  	0.161257 
1697.358080  	0.157446 
1699.286896  	0.152890 
1701.215712  	0.149195 
1703.144528  	0.146090 
1705.073344  	0.140647 
1707.002160  	0.135568 
1708.930976  	0.131079 
1710.859792  	0.125578 
1712.788608  	0.119139 
1714.717424  	0.111879 
1716.646240  	0.104026 
1718.575056  	0.097330 
1720.503872  	0.092114 
1722.432688  	0.086490 
1724.361504  	0.079820 
1726.290320  	0.073823 
1728.219136  	0.067729 
1730.147952  	0.061802 
1732.076768  	0.055983 
1734.005584  	0.050205 
1735.934400  	0.045889 
1737.863216  	0.042327 
1739.792032  	0.037478 
1741.720848  	0.034559 
1743.649664  	0.031538 
1745.578480  	0.028561 
1747.507296  	0.025267 
1749.436112  	0.023292 
1751.364928  	0.022457 
1753.293744  	0.021978 
1755.222560  	0.020336 
1757.151376  	0.019389 
1759.080192  	0.018301 
1761.009008  	0.017394 
1762.937824  	0.017024 
1764.866640  	0.016912 
1766.795456  	0.015886 
1768.724272  	0.015353 
1770.653088  	0.013630 
1772.581904  	0.013314 
1774.510720  	0.014299 
1776.439536  	0.014740 
1778.368352  	0.014381 
1780.297168  	0.014164 
1782.225984  	0.014019 
1784.154800  	0.013970 
1786.083616  	0.013886 
1788.012432  	0.013659 
1789.941248  	0.012705 
1791.870064  	0.012185 
1793.798880  	0.012349 
1795.727696  	0.012939 
1797.656512  	0.012583 
1799.585328  	0.012195 
1801.514144  	0.012095 
1803.442960  	0.012169 
1805.371776  	0.011866 
1807.300592  	0.011750 
1809.229408  	0.011241 
1811.158224  	0.011312 
1813.087040  	0.011325 
1815.015856  	0.011201 
1816.944672  	0.010890 
1818.873488  	0.011265 
1820.802304  	0.011272 
1822.731120  	0.011037 
1824.659936  	0.010551 
1826.588752  	0.010817 
1828.517568  	0.010107 
1830.446384  	0.010529 
1832.375200  	0.011173 
1834.304016  	0.011251 
1836.232832  	0.011160 
1838.161648  	0.011586 
1840.090464  	0.011389 
1842.019280  	0.010729 
1843.948096  	0.009903 
1845.876912  	0.010814 
1847.805728  	0.011290 
1849.734544  	0.011562 
1851.663360  	0.011224 
1853.592176  	0.011189 
1855.520992  	0.011017 
1857.449808  	0.011294 
1859.378624  	0.011201 
1861.307440  	0.011341 
1863.236256  	0.011096 
1865.165072  	0.010843 
1867.093888  	0.010223 
1869.022704  	0.010555 
1870.951520  	0.010862 
1872.880336  	0.011141 
1874.809152  	0.010832 
1876.737968  	0.010807 
1878.666784  	0.010631 
1880.595600  	0.010856 
1882.524416  	0.010837 
1884.453232  	0.010766 
1886.382048  	0.010467 
1888.310864  	0.010478 
1890.239680  	0.010692 
1892.168496  	0.011108 
1894.097312  	0.010552 
1896.026128  	0.010886 
1897.954944  	0.010771 
1899.883760  	0.010626 
1901.812576  	0.010410 
1903.741392  	0.010530 
1905.670208  	0.010417 
1907.599024  	0.010559 
1909.527840  	0.010463 
1911.456656  	0.010969 
1913.385472  	0.011169 
1915.314288  	0.011472 
1917.243104  	0.010883 
1919.171920  	0.010939 
1921.100736  	0.011026 
1923.029552  	0.011450 
1924.958368  	0.010436 
1926.887184  	0.010521 
1928.816000  	0.010374 
1930.744816  	0.009997 
1932.673632  	0.009878 
1934.602448  	0.010452 
1936.531264  	0.010538 
1938.460080  	0.010415 
1940.388896  	0.009747 
1942.317712  	0.009444 
1944.246528  	0.009320 
1946.175344  	0.010522 
1948.104160  	0.010262 
1950.032976  	0.010024 
1951.961792  	0.009880 
1953.890608  	0.010290 
1955.819424  	0.009782 
1957.748240  	0.009946 
1959.677056  	0.009509 
1961.605872  	0.009289 
1963.534688  	0.008867 
1965.463504  	0.010005 
1967.392320  	0.009565 
1969.321136  	0.008843 
1971.249952  	0.009071 
1973.178768  	0.010934 
1975.107584  	0.009617 
1977.036400  	0.009547 
1978.965216  	0.011815 
1980.894032  	0.012080 
1982.822848  	0.010049 
1984.751664  	0.010347 
1986.680480  	0.010492 
1988.609296  	0.010167 
1990.538112  	0.009653 
1992.466928  	0.010537 
1994.395744  	0.010393 
1996.324560  	0.010144 
1998.253376  	0.009656 
2000.182192  	0.009953 
2002.111008  	0.009970 
2004.039824  	0.010108 
2005.968640  	0.008947 
2007.897456  	0.010409 
2009.826272  	0.010757 
2011.755088  	0.009670 
2013.683904  	0.009849 
2015.612720  	0.010294 
2017.541536  	0.009263 
2019.470352  	0.009398 
2021.399168  	0.008858 
2023.327984  	0.010019 
2025.256800  	0.010374 
2027.185616  	0.010255 
2029.114432  	0.010781 
2031.043248  	0.012565 
2032.972064  	0.011651 
2034.900880  	0.011866 
2036.829696  	0.012080 
2038.758512  	0.011843 
2040.687328  	0.011335 
2042.616144  	0.011383 
2044.544960  	0.010903 
2046.473776  	0.011557 
2048.402592  	0.011901 
2050.331408  	0.013074 
2052.260224  	0.012275 
2054.189040  	0.011478 
2056.117856  	0.010697 
2058.046672  	0.011056 
2059.975488  	0.011258 
2061.904304  	0.011278 
2063.833120  	0.011733 
2065.761936  	0.012115 
2067.690752  	0.011704 
2069.619568  	0.011574 
2071.548384  	0.010476 
2073.477200  	0.010486 
2075.406016  	0.011201 
2077.334832  	0.011610 
2079.263648  	0.011131 
2081.192464  	0.011082 
2083.121280  	0.011741 
2085.050096  	0.011885 
2086.978912  	0.011413 
2088.907728  	0.011371 
2090.836544  	0.010765 
2092.765360  	0.010622 
2094.694176  	0.011190 
2096.622992  	0.011208 
2098.551808  	0.010624 
2100.480624  	0.010846 
2102.409440  	0.010681 
2104.338256  	0.011126 
2106.267072  	0.011574 
2108.195888  	0.012132 
2110.124704  	0.012587 
2112.053520  	0.012320 
2113.982336  	0.011737 
2115.911152  	0.011743 
2117.839968  	0.011078 
2119.768784  	0.010593 
2121.697600  	0.010619 
2123.626416  	0.010467 
2125.555232  	0.010037 
2127.484048  	0.010464 
2129.412864  	0.010140 
2131.341680  	0.009164 
2133.270496  	0.009125 
2135.199312  	0.009923 
2137.128128  	0.010264 
2139.056944  	0.010468 
2140.985760  	0.009605 
2142.914576  	0.010106 
2144.843392  	0.009589 
2146.772208  	0.010099 
2148.701024  	0.010930 
2150.629840  	0.011012 
2152.558656  	0.009833 
2154.487472  	0.009117 
2156.416288  	0.008482 
2158.345104  	0.010944 
2160.273920  	0.013958 
2162.202736  	0.014298 
2164.131552  	0.012805 
2166.060368  	0.014061 
2167.989184  	0.013248 
2169.918000  	0.012437 
2171.846816  	0.012112 
2173.775632  	0.012323 
2175.704448  	0.012922 
2177.633264  	0.013109 
2179.562080  	0.012954 
2181.490896  	0.012629 
2183.419712  	0.012411 
2185.348528  	0.012913 
2187.277344  	0.012150 
2189.206160  	0.012267 
2191.134976  	0.013323 
2193.063792  	0.014597 
2194.992608  	0.014422 
2196.921424  	0.013566 
2198.850240  	0.013191 
2200.779056  	0.013143 
2202.707872  	0.012864 
2204.636688  	0.012964 
2206.565504  	0.013144 
2208.494320  	0.013689 
2210.423136  	0.012417 
2212.351952  	0.012260 
2214.280768  	0.012653 
2216.209584  	0.012597 
2218.138400  	0.012140 
2220.067216  	0.012458 
2221.996032  	0.012695 
2223.924848  	0.012491 
2225.853664  	0.012992 
2227.782480  	0.013496 
2229.711296  	0.013291 
2231.640112  	0.012952 
2233.568928  	0.012306 
2235.497744  	0.012321 
2237.426560  	0.012296 
2239.355376  	0.012439 
2241.284192  	0.011886 
2243.213008  	0.011784 
2245.141824  	0.012172 
2247.070640  	0.011758 
2248.999456  	0.011344 
2250.928272  	0.012093 
2252.857088  	0.012136 
2254.785904  	0.011891 
2256.714720  	0.012220 
2258.643536  	0.012755 
2260.572352  	0.012557 
2262.501168  	0.012653 
2264.429984  	0.012790 
2266.358800  	0.013159 
2268.287616  	0.012980 
2270.216432  	0.013011 
2272.145248  	0.012980 
2274.074064  	0.013000 
2276.002880  	0.013042 
2277.931696  	0.013524 
2279.860512  	0.013843 
2281.789328  	0.013828 
2283.718144  	0.013655 
2285.646960  	0.014006 
2287.575776  	0.014205 
2289.504592  	0.013800 
2291.433408  	0.013397 
2293.362224  	0.013303 
2295.291040  	0.013401 
2297.219856  	0.013852 
2299.148672  	0.013806 
2301.077488  	0.013710 
2303.006304  	0.013805 
2304.935120  	0.013787 
2306.863936  	0.013464 
2308.792752  	0.013417 
2310.721568  	0.013517 
2312.650384  	0.013304 
2314.579200  	0.013113 
2316.508016  	0.013015 
2318.436832  	0.012519 
2320.365648  	0.012079 
2322.294464  	0.011917 
2324.223280  	0.011263 
2326.152096  	0.009568 
2328.080912  	0.008630 
2330.009728  	0.008234 
2331.938544  	0.007789 
2333.867360  	0.006856 
2335.796176  	0.006395 
2337.724992  	0.006200 
2339.653808  	0.005819 
2341.582624  	0.005839 
2343.511440  	0.006954 
2345.440256  	0.008570 
2347.369072  	0.010412 
2349.297888  	0.010198 
2351.226704  	0.008267 
2353.155520  	0.006526 
2355.084336  	0.005128 
2357.013152  	0.003876 
2358.941968  	0.003054 
2360.870784  	0.002679 
2362.799600  	0.003298 
2364.728416  	0.004122 
2366.657232  	0.005294 
2368.586048  	0.006112 
2370.514864  	0.007661 
2372.443680  	0.009501 
2374.372496  	0.011157 
2376.301312  	0.012244 
2378.230128  	0.013179 
2380.158944  	0.013576 
2382.087760  	0.013787 
2384.016576  	0.013837 
2385.945392  	0.013940 
2387.874208  	0.013681 
2389.803024  	0.013438 
2391.731840  	0.013326 
2393.660656  	0.013608 
2395.589472  	0.013739 
2397.518288  	0.013800 
2399.447104  	0.013668 
2401.375920  	0.013388 
2403.304736  	0.013437 
2405.233552  	0.013740 
2407.162368  	0.014022 
2409.091184  	0.014066 
2411.020000  	0.014002 
2412.948816  	0.014150 
2414.877632  	0.014180 
2416.806448  	0.014260 
2418.735264  	0.014415 
2420.664080  	0.014461 
2422.592896  	0.014197 
2424.521712  	0.014179 
2426.450528  	0.014301 
2428.379344  	0.014360 
2430.308160  	0.014441 
2432.236976  	0.014667 
2434.165792  	0.015042 
2436.094608  	0.015489 
2438.023424  	0.015464 
2439.952240  	0.015447 
2441.881056  	0.015384 
2443.809872  	0.015349 
2445.738688  	0.015385 
2447.667504  	0.015479 
2449.596320  	0.015624 
2451.525136  	0.015677 
2453.453952  	0.015563 
2455.382768  	0.015798 
2457.311584  	0.015996 
2459.240400  	0.015952 
2461.169216  	0.015725 
2463.098032  	0.015661 
2465.026848  	0.015580 
2466.955664  	0.015558 
2468.884480  	0.015735 
2470.813296  	0.016028 
2472.742112  	0.015899 
2474.670928  	0.015742 
2476.599744  	0.015701 
2478.528560  	0.015801 
2480.457376  	0.016090 
2482.386192  	0.016140 
2484.315008  	0.016119 
2486.243824  	0.016233 
2488.172640  	0.016113 
2490.101456  	0.016221 
2492.030272  	0.016516 
2493.959088  	0.016421 
2495.887904  	0.016053 
2497.816720  	0.016244 
2499.745536  	0.016522 
2501.674352  	0.016755 
2503.603168  	0.016879 
2505.531984  	0.016974 
2507.460800  	0.016859 
2509.389616  	0.016822 
2511.318432  	0.016605 
2513.247248  	0.016629 
2515.176064  	0.016854 
2517.104880  	0.017252 
2519.033696  	0.017417 
2520.962512  	0.017492 
2522.891328  	0.017687 
2524.820144  	0.017649 
2526.748960  	0.017489 
2528.677776  	0.017795 
2530.606592  	0.017871 
2532.535408  	0.017890 
2534.464224  	0.018003 
2536.393040  	0.017894 
2538.321856  	0.017776 
2540.250672  	0.018074 
2542.179488  	0.018198 
2544.108304  	0.018257 
2546.037120  	0.018213 
2547.965936  	0.018416 
2549.894752  	0.018708 
2551.823568  	0.018815 
2553.752384  	0.018906 
2555.681200  	0.019069 
2557.610016  	0.019089 
2559.538832  	0.019152 
2561.467648  	0.019269 
2563.396464  	0.019415 
2565.325280  	0.019516 
2567.254096  	0.019580 
2569.182912  	0.019490 
2571.111728  	0.019451 
2573.040544  	0.019323 
2574.969360  	0.019357 
2576.898176  	0.019540 
2578.826992  	0.019785 
2580.755808  	0.019799 
2582.684624  	0.019840 
2584.613440  	0.019864 
2586.542256  	0.020021 
2588.471072  	0.020056 
2590.399888  	0.020161 
2592.328704  	0.020302 
2594.257520  	0.020429 
2596.186336  	0.020736 
2598.115152  	0.020944 
2600.043968  	0.020832 
2601.972784  	0.020764 
2603.901600  	0.020857 
2605.830416  	0.021034 
2607.759232  	0.020971 
2609.688048  	0.021113 
2611.616864  	0.021307 
2613.545680  	0.021319 
2615.474496  	0.021362 
2617.403312  	0.021516 
2619.332128  	0.021781 
2621.260944  	0.021903 
2623.189760  	0.021943 
2625.118576  	0.022165 
2627.047392  	0.022307 
2628.976208  	0.022537 
2630.905024  	0.022690 
2632.833840  	0.022964 
2634.762656  	0.023137 
2636.691472  	0.023127 
2638.620288  	0.023216 
2640.549104  	0.023303 
2642.477920  	0.023327 
2644.406736  	0.023387 
2646.335552  	0.023586 
2648.264368  	0.023740 
2650.193184  	0.023920 
2652.122000  	0.024156 
2654.050816  	0.024358 
2655.979632  	0.024335 
2657.908448  	0.024346 
2659.837264  	0.024395 
2661.766080  	0.024395 
2663.694896  	0.024468 
2665.623712  	0.024376 
2667.552528  	0.024372 
2669.481344  	0.024685 
2671.410160  	0.024971 
2673.338976  	0.025057 
2675.267792  	0.025128 
2677.196608  	0.025255 
2679.125424  	0.025379 
2681.054240  	0.025437 
2682.983056  	0.025571 
2684.911872  	0.025736 
2686.840688  	0.025819 
2688.769504  	0.025908 
2690.698320  	0.026051 
2692.627136  	0.026246 
2694.555952  	0.026232 
2696.484768  	0.026157 
2698.413584  	0.026327 
2700.342400  	0.026493 
2702.271216  	0.026697 
2704.200032  	0.026910 
2706.128848  	0.027080 
2708.057664  	0.027202 
2709.986480  	0.027262 
2711.915296  	0.027335 
2713.844112  	0.027392 
2715.772928  	0.027625 
2717.701744  	0.027883 
2719.630560  	0.027886 
2721.559376  	0.027904 
2723.488192  	0.028048 
2725.417008  	0.028326 
2727.345824  	0.028573 
2729.274640  	0.028518 
2731.203456  	0.028468 
2733.132272  	0.028649 
2735.061088  	0.028923 
2736.989904  	0.029015 
2738.918720  	0.029091 
2740.847536  	0.029163 
2742.776352  	0.029274 
2744.705168  	0.029464 
2746.633984  	0.029474 
2748.562800  	0.029679 
2750.491616  	0.029795 
2752.420432  	0.029743 
2754.349248  	0.029763 
2756.278064  	0.029923 
2758.206880  	0.029924 
2760.135696  	0.030037 
2762.064512  	0.030050 
2763.993328  	0.030026 
2765.922144  	0.030149 
2767.850960  	0.030261 
2769.779776  	0.030262 
2771.708592  	0.030339 
2773.637408  	0.030366 
2775.566224  	0.030403 
2777.495040  	0.030477 
2779.423856  	0.030656 
2781.352672  	0.030832 
2783.281488  	0.030888 
2785.210304  	0.030932 
2787.139120  	0.031100 
2789.067936  	0.031239 
2790.996752  	0.031280 
2792.925568  	0.031439 
2794.854384  	0.031703 
2796.783200  	0.031741 
2798.712016  	0.031645 
2800.640832  	0.031630 
2802.569648  	0.031837 
2804.498464  	0.031942 
2806.427280  	0.031953 
2808.356096  	0.032096 
2810.284912  	0.032347 
2812.213728  	0.032405 
2814.142544  	0.032430 
2816.071360  	0.032479 
2818.000176  	0.032423 
2819.928992  	0.032371 
2821.857808  	0.032424 
2823.786624  	0.032534 
2825.715440  	0.032568 
2827.644256  	0.032458 
2829.573072  	0.032515 
2831.501888  	0.032458 
2833.430704  	0.032409 
2835.359520  	0.032351 
2837.288336  	0.032245 
2839.217152  	0.032160 
2841.145968  	0.032125 
2843.074784  	0.032129 
2845.003600  	0.032235 
2846.932416  	0.032430 
2848.861232  	0.032558 
2850.790048  	0.032509 
2852.718864  	0.032271 
2854.647680  	0.031839 
2856.576496  	0.031597 
2858.505312  	0.031480 
2860.434128  	0.031349 
2862.362944  	0.031131 
2864.291760  	0.030939 
2866.220576  	0.030876 
2868.149392  	0.031166 
2870.078208  	0.031471 
2872.007024  	0.031716 
2873.935840  	0.031999 
2875.864656  	0.032332 
2877.793472  	0.032741 
2879.722288  	0.033111 
2881.651104  	0.033232 
2883.579920  	0.033391 
2885.508736  	0.033693 
2887.437552  	0.034056 
2889.366368  	0.034278 
2891.295184  	0.034255 
2893.224000  	0.034332 
2895.152816  	0.034490 
2897.081632  	0.034080 
2899.010448  	0.033614 
2900.939264  	0.033559 
2902.868080  	0.034113 
2904.796896  	0.034624 
2906.725712  	0.034952 
2908.654528  	0.035287 
2910.583344  	0.035816 
2912.512160  	0.036637 
2914.440976  	0.037590 
2916.369792  	0.038328 
2918.298608  	0.038802 
2920.227424  	0.039316 
2922.156240  	0.039901 
2924.085056  	0.040323 
2926.013872  	0.040944 
2927.942688  	0.041624 
2929.871504  	0.042209 
2931.800320  	0.042714 
2933.729136  	0.043102 
2935.657952  	0.043397 
2937.586768  	0.043887 
2939.515584  	0.044131 
2941.444400  	0.044277 
2943.373216  	0.044438 
2945.302032  	0.044514 
2947.230848  	0.044641 
2949.159664  	0.044543 
2951.088480  	0.044289 
2953.017296  	0.044275 
2954.946112  	0.043970 
2956.874928  	0.043573 
2958.803744  	0.043364 
2960.732560  	0.043018 
2962.661376  	0.042579 
2964.590192  	0.042058 
2966.519008  	0.041468 
2968.447824  	0.040912 
2970.376640  	0.040560 
2972.305456  	0.040159 
2974.234272  	0.039866 
2976.163088  	0.039645 
2978.091904  	0.039526 
2980.020720  	0.039457 
2981.949536  	0.039457 
2983.878352  	0.039215 
2985.807168  	0.038785 
2987.735984  	0.038590 
2989.664800  	0.038823 
2991.593616  	0.039696 
2993.522432  	0.040089 
2995.451248  	0.040297 
2997.380064  	0.040665 
2999.308880  	0.041087 
3001.237696  	0.041574 
3003.166512  	0.042081 
3005.095328  	0.042507 
3007.024144  	0.043096 
3008.952960  	0.043630 
3010.881776  	0.044225 
3012.810592  	0.044680 
3014.739408  	0.045154 
3016.668224  	0.045730 
3018.597040  	0.046130 
3020.525856  	0.046393 
3022.454672  	0.046910 
3024.383488  	0.047306 
3026.312304  	0.047662 
3028.241120  	0.048095 
3030.169936  	0.048339 
3032.098752  	0.048697 
3034.027568  	0.048918 
3035.956384  	0.049191 
3037.885200  	0.049577 
3039.814016  	0.050044 
3041.742832  	0.050516 
3043.671648  	0.050745 
3045.600464  	0.050950 
3047.529280  	0.051231 
3049.458096  	0.051589 
3051.386912  	0.051890 
3053.315728  	0.052146 
3055.244544  	0.052576 
3057.173360  	0.053329 
3059.102176  	0.053734 
3061.030992  	0.053817 
3062.959808  	0.054118 
3064.888624  	0.054611 
3066.817440  	0.055132 
3068.746256  	0.055598 
3070.675072  	0.055887 
3072.603888  	0.056320 
3074.532704  	0.056871 
3076.461520  	0.057284 
3078.390336  	0.057576 
3080.319152  	0.057941 
3082.247968  	0.058408 
3084.176784  	0.058923 
3086.105600  	0.059197 
3088.034416  	0.059502 
3089.963232  	0.059961 
3091.892048  	0.060463 
3093.820864  	0.060744 
3095.749680  	0.061100 
3097.678496  	0.061245 
3099.607312  	0.061512 
3101.536128  	0.062130 
3103.464944  	0.062622 
3105.393760  	0.062929 
3107.322576  	0.063356 
3109.251392  	0.063659 
3111.180208  	0.064060 
3113.109024  	0.064391 
3115.037840  	0.064605 
3116.966656  	0.064873 
3118.895472  	0.065321 
3120.824288  	0.065402 
3122.753104  	0.065611 
3124.681920  	0.066012 
3126.610736  	0.066192 
3128.539552  	0.066377 
3130.468368  	0.066555 
3132.397184  	0.066778 
3134.326000  	0.066987 
3136.254816  	0.067299 
3138.183632  	0.067666 
3140.112448  	0.067894 
3142.041264  	0.068029 
3143.970080  	0.068247 
3145.898896  	0.068516 
3147.827712  	0.068746 
3149.756528  	0.069067 
3151.685344  	0.069560 
3153.614160  	0.070013 
3155.542976  	0.070227 
3157.471792  	0.070402 
3159.400608  	0.070753 
3161.329424  	0.071223 
3163.258240  	0.071523 
3165.187056  	0.071692 
3167.115872  	0.071892 
3169.044688  	0.072052 
3170.973504  	0.072126 
3172.902320  	0.072236 
3174.831136  	0.072530 
3176.759952  	0.072918 
3178.688768  	0.073111 
3180.617584  	0.073235 
3182.546400  	0.073204 
3184.475216  	0.073314 
3186.404032  	0.073363 
3188.332848  	0.073356 
3190.261664  	0.073628 
3192.190480  	0.073739 
3194.119296  	0.073414 
3196.048112  	0.073288 
3197.976928  	0.073620 
3199.905744  	0.073833 
3201.834560  	0.073739 
3203.763376  	0.073714 
3205.692192  	0.073687 
3207.621008  	0.073442 
3209.549824  	0.073199 
3211.478640  	0.073053 
3213.407456  	0.072836 
3215.336272  	0.072870 
3217.265088  	0.072765 
3219.193904  	0.072399 
3221.122720  	0.072096 
3223.051536  	0.071844 
3224.980352  	0.071510 
3226.909168  	0.071220 
3228.837984  	0.071017 
3230.766800  	0.071051 
3232.695616  	0.071041 
3234.624432  	0.070942 
3236.553248  	0.070837 
3238.482064  	0.070720 
3240.410880  	0.070594 
3242.339696  	0.070449 
3244.268512  	0.070336 
3246.197328  	0.070312 
3248.126144  	0.070437 
3250.054960  	0.070467 
3251.983776  	0.070329 
3253.912592  	0.070384 
3255.841408  	0.070519 
3257.770224  	0.070627 
3259.699040  	0.070742 
3261.627856  	0.070910 
3263.556672  	0.071046 
3265.485488  	0.071110 
3267.414304  	0.071112 
3269.343120  	0.071111 
3271.271936  	0.071335 
3273.200752  	0.071608 
3275.129568  	0.071774 
3277.058384  	0.071734 
3278.987200  	0.071802 
3280.916016  	0.071985 
3282.844832  	0.072087 
3284.773648  	0.072179 
3286.702464  	0.072414 
3288.631280  	0.072595 
3290.560096  	0.072676 
3292.488912  	0.072799 
3294.417728  	0.072803 
3296.346544  	0.072969 
3298.275360  	0.073288 
3300.204176  	0.073741 
3302.132992  	0.073872 
3304.061808  	0.073954 
3305.990624  	0.074182 
3307.919440  	0.074335 
3309.848256  	0.074568 
3311.777072  	0.074896 
3313.705888  	0.075089 
3315.634704  	0.075321 
3317.563520  	0.075585 
3319.492336  	0.075799 
3321.421152  	0.075883 
3323.349968  	0.075906 
3325.278784  	0.076033 
3327.207600  	0.076141 
3329.136416  	0.076227 
3331.065232  	0.076147 
3332.994048  	0.076282 
3334.922864  	0.076243 
3336.851680  	0.076023 
3338.780496  	0.075954 
3340.709312  	0.076004 
3342.638128  	0.075913 
3344.566944  	0.075744 
3346.495760  	0.075543 
3348.424576  	0.075245 
3350.353392  	0.074986 
3352.282208  	0.074680 
3354.211024  	0.074508 
3356.139840  	0.074347 
3358.068656  	0.074029 
3359.997472  	0.073638 
3361.926288  	0.073355 
3363.855104  	0.072956 
3365.783920  	0.072713 
3367.712736  	0.072568 
3369.641552  	0.072196 
3371.570368  	0.071843 
3373.499184  	0.071531 
3375.428000  	0.071185 
3377.356816  	0.070962 
3379.285632  	0.070685 
3381.214448  	0.070374 
3383.143264  	0.070085 
3385.072080  	0.069857 
3387.000896  	0.069422 
3388.929712  	0.069066 
3390.858528  	0.068651 
3392.787344  	0.068216 
3394.716160  	0.067839 
3396.644976  	0.067624 
3398.573792  	0.067370 
3400.502608  	0.066897 
3402.431424  	0.066412 
3404.360240  	0.065908 
3406.289056  	0.065644 
3408.217872  	0.065388 
3410.146688  	0.064890 
3412.075504  	0.064632 
3414.004320  	0.064488 
3415.933136  	0.064092 
3417.861952  	0.063533 
3419.790768  	0.063176 
3421.719584  	0.063016 
3423.648400  	0.062641 
3425.577216  	0.062368 
3427.506032  	0.062056 
3429.434848  	0.061271 
3431.363664  	0.060679 
3433.292480  	0.060373 
3435.221296  	0.060137 
3437.150112  	0.059865 
3439.078928  	0.059634 
3441.007744  	0.059315 
3442.936560  	0.059053 
3444.865376  	0.058504 
3446.794192  	0.057791 
3448.723008  	0.057472 
3450.651824  	0.056897 
3452.580640  	0.056293 
3454.509456  	0.055927 
3456.438272  	0.055455 
3458.367088  	0.055059 
3460.295904  	0.054698 
3462.224720  	0.054174 
3464.153536  	0.053599 
3466.082352  	0.053259 
3468.011168  	0.052820 
3469.939984  	0.052227 
3471.868800  	0.051673 
3473.797616  	0.051098 
3475.726432  	0.050546 
3477.655248  	0.050044 
3479.584064  	0.049546 
3481.512880  	0.049164 
3483.441696  	0.048699 
3485.370512  	0.048025 
3487.299328  	0.047602 
3489.228144  	0.047153 
3491.156960  	0.046406 
3493.085776  	0.045764 
3495.014592  	0.045283 
3496.943408  	0.044884 
3498.872224  	0.044408 
3500.801040  	0.043983 
3502.729856  	0.043490 
3504.658672  	0.043096 
3506.587488  	0.042378 
3508.516304  	0.041866 
3510.445120  	0.041837 
3512.373936  	0.041760 
3514.302752  	0.041471 
3516.231568  	0.040843 
3518.160384  	0.040217 
3520.089200  	0.039861 
3522.018016  	0.039298 
3523.946832  	0.039052 
3525.875648  	0.038745 
3527.804464  	0.038240 
3529.733280  	0.037983 
3531.662096  	0.037622 
3533.590912  	0.037079 
3535.519728  	0.036858 
3537.448544  	0.036693 
3539.377360  	0.036160 
3541.306176  	0.035418 
3543.234992  	0.034723 
3545.163808  	0.034753 
3547.092624  	0.034712 
3549.021440  	0.033994 
3550.950256  	0.033372 
3552.879072  	0.033377 
3554.807888  	0.033449 
3556.736704  	0.032946 
3558.665520  	0.032417 
3560.594336  	0.032148 
3562.523152  	0.031398 
3564.451968  	0.030417 
3566.380784  	0.029923 
3568.309600  	0.030531 
3570.238416  	0.030333 
3572.167232  	0.029483 
3574.096048  	0.028949 
3576.024864  	0.028523 
3577.953680  	0.028116 
3579.882496  	0.027801 
3581.811312  	0.027393 
3583.740128  	0.026458 
3585.668944  	0.025308 
3587.597760  	0.025451 
3589.526576  	0.025917 
3591.455392  	0.024684 
3593.384208  	0.023744 
3595.313024  	0.023562 
3597.241840  	0.023284 
3599.170656  	0.022267 
3601.099472  	0.021767 
3603.028288  	0.021700 
3604.957104  	0.020749 
3606.885920  	0.019520 
3608.814736  	0.019733 
3610.743552  	0.019263 
3612.672368  	0.018137 
3614.601184  	0.017999 
3616.530000  	0.017095 
3618.458816  	0.016237 
3620.387632  	0.016554 
3622.316448  	0.016289 
3624.245264  	0.015391 
3626.174080  	0.013598 
3628.102896  	0.012103 
3630.031712  	0.013892 
3631.960528  	0.014049 
3633.889344  	0.013201 
3635.818160  	0.012612 
3637.746976  	0.012164 
3639.675792  	0.011882 
3641.604608  	0.011334 
3643.533424  	0.010473 
3645.462240  	0.008482 
3647.391056  	0.006386 
3649.319872  	0.006052 
3651.248688  	0.008110 
3653.177504  	0.008304 
3655.106320  	0.006766 
3657.035136  	0.007094 
3658.963952  	0.007148 
3660.892768  	0.006449 
3662.821584  	0.006091 
3664.750400  	0.005800 
3666.679216  	0.004545 
3668.608032  	0.002690 
3670.536848  	0.003162 
3672.465664  	0.003342 
3674.394480  	0.001018 
3676.323296  	0.002705 
3678.252112  	0.004236 
3680.180928  	0.004463 
3682.109744  	0.004405 
3684.038560  	0.003872 
3685.967376  	0.002467 
3687.896192  	0.000996 
3689.825008  	0.001772 
3691.753824  	0.003386 
3693.682640  	0.004038 
3695.611456  	0.003900 
3697.540272  	0.003955 
3699.469088  	0.003339 
3701.397904  	0.003350 
3703.326720  	0.004310 
3705.255536  	0.004366 
3707.184352  	0.003291 
3709.113168  	0.002168 
3711.041984  	0.002186 
3712.970800  	0.003942 
3714.899616  	0.004842 
3716.828432  	0.004419 
3718.757248  	0.003878 
3720.686064  	0.003430 
3722.614880  	0.003709 
3724.543696  	0.004091 
3726.472512  	0.004422 
3728.401328  	0.004229 
3730.330144  	0.002537 
3732.258960  	0.001402 
3734.187776  	0.001857 
3736.116592  	0.003892 
3738.045408  	0.004612 
3739.974224  	0.003740 
3741.903040  	0.002225 
3743.831856  	0.001635 
3745.760672  	0.003835 
3747.689488  	0.002284 
3749.618304  	0.000847 
3751.547120  	0.002199 
3753.475936  	0.004570 
3755.404752  	0.004400 
3757.333568  	0.003695 
3759.262384  	0.003767 
3761.191200  	0.004851 
3763.120016  	0.004767 
3765.048832  	0.004383 
3766.977648  	0.004359 
3768.906464  	0.003885 
3770.835280  	0.004743 
3772.764096  	0.005450 
3774.692912  	0.005308 
3776.621728  	0.004553 
3778.550544  	0.003889 
3780.479360  	0.004689 
3782.408176  	0.004850 
3784.336992  	0.004423 
3786.265808  	0.004758 
3788.194624  	0.005007 
3790.123440  	0.004967 
3792.052256  	0.004938 
3793.981072  	0.004367 
3795.909888  	0.003807 
3797.838704  	0.003811 
3799.767520  	0.002298 
3801.696336  	0.002833 
3803.625152  	0.004241 
3805.553968  	0.003266 
3807.482784  	0.004181 
3809.411600  	0.005330 
3811.340416  	0.005133 
3813.269232  	0.004002 
3815.198048  	0.002778 
3817.126864  	0.003560 
3819.055680  	0.002338 
3820.984496  	0.002309 
3822.913312  	0.004639 
3824.842128  	0.004373 
3826.770944  	0.004289 
3828.699760  	0.004572 
3830.628576  	0.003972 
3832.557392  	0.003805 
3834.486208  	0.003100 
3836.415024  	0.002148 
3838.343840  	0.002546 
3840.272656  	0.003401 
3842.201472  	0.003781 
3844.130288  	0.004253 
3846.059104  	0.004793 
3847.987920  	0.004272 
3849.916736  	0.002826 
3851.845552  	0.000660 
3853.774368  	0.002749 
3855.703184  	0.005256 
3857.632000  	0.004822 
3859.560816  	0.004305 
3861.489632  	0.003780 
3863.418448  	0.003488 
3865.347264  	0.004093 
3867.276080  	0.003825 
3869.204896  	0.003117 
3871.133712  	0.004740 
3873.062528  	0.004351 
3874.991344  	0.004813 
3876.920160  	0.004765 
3878.848976  	0.003861 
3880.777792  	0.004502 
3882.706608  	0.004889 
3884.635424  	0.004019 
3886.564240  	0.005020 
3888.493056  	0.004779 
3890.421872  	0.003990 
3892.350688  	0.004805 
3894.279504  	0.005140 
3896.208320  	0.004626 
3898.137136  	0.003948 
3900.065952  	0.003808 
3901.994768  	0.003884 
3903.923584  	0.004568 
3905.852400  	0.005570 
3907.781216  	0.005554 
3909.710032  	0.005223 
3911.638848  	0.005126 
3913.567664  	0.005039 
3915.496480  	0.005036 
3917.425296  	0.005595 
3919.354112  	0.005735 
3921.282928  	0.005636 
3923.211744  	0.005296 
3925.140560  	0.005543 
3927.069376  	0.005552 
3928.998192  	0.005095 
3930.927008  	0.005213 
3932.855824  	0.005905 
3934.784640  	0.005878 
3936.713456  	0.005686 
3938.642272  	0.005723 
3940.571088  	0.005195 
3942.499904  	0.005444 
3944.428720  	0.005936 
3946.357536  	0.005595 
3948.286352  	0.005526 
3950.215168  	0.005581 
3952.143984  	0.005576 
3954.072800  	0.005373 
3956.001616  	0.005282 
3957.930432  	0.005495 
3959.859248  	0.005679 
3961.788064  	0.005696 
3963.716880  	0.005723 
3965.645696  	0.005662 
3967.574512  	0.005779 
3969.503328  	0.005798 
3971.432144  	0.005645 
3973.360960  	0.005568 
3975.289776  	0.005808 
3977.218592  	0.005916 
3979.147408  	0.005936 
3981.076224  	0.005860 
3983.005040  	0.005731 
3984.933856  	0.005761 
3986.862672  	0.005813 
3988.791488  	0.005840 
3990.720304  	0.005828 
3992.649120  	0.005750 
3994.577936  	0.005682 
3996.506752  	0.005641 
3998.435568  	0.005638 
4000.364384  	0.005701 