##TITLE=No Description
##DATA TYPE=INFRARED SPECTRUM
##XUNITS=1/CM
##YUNITS=Abs
399.264912  	0.573112 
401.193728  	0.557953 
403.122544  	0.570742 
405.051360  	0.565593 
406.980176  	0.560814 
408.908992  	0.565678 
410.837808  	0.573882 
412.766624  	0.560767 
414.695440  	0.559991 
416.624256  	0.550995 
418.553072  	0.535148 
420.481888  	0.525991 
422.410704  	0.534705 
424.339520  	0.536979 
426.268336  	0.537197 
428.197152  	0.528552 
430.125968  	0.526154 
432.054784  	0.519140 
433.983600  	0.516138 
435.912416  	0.507995 
437.841232  	0.511033 
439.770048  	0.515020 
441.698864  	0.514375 
443.627680  	0.504758 
445.556496  	0.498085 
447.485312  	0.494628 
449.414128  	0.499521 
451.342944  	0.497946 
453.271760  	0.499545 
455.200576  	0.494099 
457.129392  	0.491710 
459.058208  	0.495831 
460.987024  	0.497061 
462.915840  	0.494549 
464.844656  	0.500582 
466.773472  	0.504190 
468.702288  	0.502229 
470.631104  	0.495329 
472.559920  	0.497881 
474.488736  	0.496919 
476.417552  	0.492665 
478.346368  	0.489764 
480.275184  	0.492280 
482.204000  	0.493359 
484.132816  	0.497347 
486.061632  	0.492982 
487.990448  	0.490603 
489.919264  	0.486595 
491.848080  	0.487566 
493.776896  	0.488753 
495.705712  	0.490212 
497.634528  	0.486328 
499.563344  	0.486627 
501.492160  	0.485108 
503.420976  	0.483442 
505.349792  	0.481936 
507.278608  	0.484022 
509.207424  	0.483471 
511.136240  	0.486088 
513.065056  	0.490069 
514.993872  	0.490504 
516.922688  	0.485368 
518.851504  	0.485648 
520.780320  	0.485046 
522.709136  	0.485273 
524.637952  	0.482438 
526.566768  	0.481241 
528.495584  	0.482001 
530.424400  	0.478937 
532.353216  	0.473026 
534.282032  	0.471000 
536.210848  	0.466618 
538.139664  	0.463605 
540.068480  	0.459718 
541.997296  	0.455842 
543.926112  	0.450701 
545.854928  	0.447988 
547.783744  	0.443588 
549.712560  	0.438275 
551.641376  	0.433959 
553.570192  	0.432645 
555.499008  	0.429561 
557.427824  	0.425701 
559.356640  	0.420893 
561.285456  	0.417367 
563.214272  	0.413684 
565.143088  	0.410782 
567.071904  	0.406928 
569.000720  	0.403633 
570.929536  	0.399873 
572.858352  	0.397298 
574.787168  	0.393370 
576.715984  	0.389461 
578.644800  	0.385991 
580.573616  	0.383691 
582.502432  	0.379546 
584.431248  	0.377346 
586.360064  	0.374854 
588.288880  	0.372523 
590.217696  	0.369441 
592.146512  	0.367169 
594.075328  	0.365292 
596.004144  	0.362974 
597.932960  	0.361210 
599.861776  	0.360878 
601.790592  	0.359719 
603.719408  	0.358419 
605.648224  	0.357029 
607.577040  	0.356451 
609.505856  	0.355895 
611.434672  	0.354915 
613.363488  	0.352581 
615.292304  	0.351379 
617.221120  	0.349787 
619.149936  	0.347827 
621.078752  	0.345553 
623.007568  	0.344202 
624.936384  	0.342569 
626.865200  	0.340917 
628.794016  	0.339786 
630.722832  	0.339032 
632.651648  	0.337917 
634.580464  	0.337269 
636.509280  	0.337707 
638.438096  	0.337770 
640.366912  	0.336675 
642.295728  	0.335165 
644.224544  	0.333256 
646.153360  	0.330180 
648.082176  	0.326385 
650.010992  	0.323388 
651.939808  	0.319772 
653.868624  	0.316577 
655.797440  	0.312853 
657.726256  	0.309753 
659.655072  	0.306355 
661.583888  	0.302726 
663.512704  	0.299167 
665.441520  	0.295944 
667.370336  	0.291438 
669.299152  	0.286742 
671.227968  	0.284950 
673.156784  	0.282993 
675.085600  	0.281060 
677.014416  	0.279697 
678.943232  	0.278038 
680.872048  	0.275788 
682.800864  	0.274379 
684.729680  	0.273377 
686.658496  	0.271161 
688.587312  	0.269238 
690.516128  	0.267459 
692.444944  	0.266263 
694.373760  	0.265094 
696.302576  	0.263642 
698.231392  	0.261320 
700.160208  	0.258513 
702.089024  	0.256038 
704.017840  	0.254490 
705.946656  	0.251992 
707.875472  	0.249662 
709.804288  	0.247524 
711.733104  	0.245763 
713.661920  	0.244300 
715.590736  	0.244160 
717.519552  	0.244104 
719.448368  	0.244662 
721.377184  	0.246133 
723.306000  	0.246980 
725.234816  	0.246920 
727.163632  	0.245708 
729.092448  	0.243249 
731.021264  	0.240880 
732.950080  	0.237935 
734.878896  	0.234916 
736.807712  	0.232794 
738.736528  	0.231072 
740.665344  	0.229097 
742.594160  	0.227759 
744.522976  	0.226499 
746.451792  	0.225316 
748.380608  	0.224541 
750.309424  	0.224073 
752.238240  	0.223302 
754.167056  	0.222972 
756.095872  	0.222295 
758.024688  	0.221605 
759.953504  	0.221448 
761.882320  	0.221759 
763.811136  	0.222056 
765.739952  	0.221848 
767.668768  	0.220726 
769.597584  	0.219279 
771.526400  	0.219183 
773.455216  	0.221096 
775.384032  	0.224148 
777.312848  	0.228549 
779.241664  	0.232691 
781.170480  	0.233682 
783.099296  	0.230791 
785.028112  	0.225761 
786.956928  	0.219928 
788.885744  	0.214808 
790.814560  	0.210889 
792.743376  	0.208375 
794.672192  	0.206952 
796.601008  	0.205976 
798.529824  	0.204235 
800.458640  	0.201128 
802.387456  	0.197864 
804.316272  	0.196513 
806.245088  	0.195956 
808.173904  	0.195719 
810.102720  	0.195712 
812.031536  	0.196104 
813.960352  	0.196003 
815.889168  	0.195859 
817.817984  	0.196116 
819.746800  	0.196222 
821.675616  	0.195856 
823.604432  	0.195424 
825.533248  	0.194563 
827.462064  	0.193478 
829.390880  	0.192508 
831.319696  	0.191528 
833.248512  	0.189995 
835.177328  	0.188061 
837.106144  	0.185652 
839.034960  	0.182901 
840.963776  	0.179971 
842.892592  	0.177201 
844.821408  	0.174244 
846.750224  	0.171508 
848.679040  	0.169306 
850.607856  	0.167442 
852.536672  	0.165895 
854.465488  	0.164259 
856.394304  	0.162890 
858.323120  	0.161279 
860.251936  	0.159402 
862.180752  	0.157457 
864.109568  	0.155485 
866.038384  	0.153815 
867.967200  	0.152216 
869.896016  	0.150935 
871.824832  	0.149780 
873.753648  	0.149355 
875.682464  	0.149595 
877.611280  	0.149537 
879.540096  	0.149755 
881.468912  	0.150665 
883.397728  	0.151322 
885.326544  	0.151854 
887.255360  	0.151762 
889.184176  	0.151031 
891.112992  	0.149654 
893.041808  	0.148072 
894.970624  	0.146053 
896.899440  	0.143285 
898.828256  	0.139894 
900.757072  	0.136434 
902.685888  	0.133476 
904.614704  	0.132041 
906.543520  	0.132135 
908.472336  	0.133413 
910.401152  	0.135651 
912.329968  	0.138619 
914.258784  	0.141777 
916.187600  	0.144639 
918.116416  	0.146701 
920.045232  	0.147522 
921.974048  	0.147238 
923.902864  	0.146516 
925.831680  	0.145369 
927.760496  	0.144331 
929.689312  	0.143687 
931.618128  	0.143811 
933.546944  	0.144161 
935.475760  	0.144378 
937.404576  	0.144734 
939.333392  	0.145543 
941.262208  	0.146897 
943.191024  	0.149317 
945.119840  	0.153113 
947.048656  	0.158228 
948.977472  	0.164531 
950.906288  	0.171650 
952.835104  	0.179400 
954.763920  	0.186831 
956.692736  	0.193455 
958.621552  	0.199194 
960.550368  	0.202934 
962.479184  	0.204361 
964.408000  	0.202732 
966.336816  	0.198485 
968.265632  	0.191831 
970.194448  	0.183509 
972.123264  	0.173987 
974.052080  	0.163874 
975.980896  	0.153991 
977.909712  	0.144956 
979.838528  	0.137307 
981.767344  	0.131263 
983.696160  	0.127035 
985.624976  	0.124859 
987.553792  	0.125093 
989.482608  	0.127465 
991.411424  	0.131706 
993.340240  	0.137526 
995.269056  	0.144471 
997.197872  	0.151843 
999.126688  	0.158675 
1001.055504  	0.165636 
1002.984320  	0.172584 
1004.913136  	0.179106 
1006.841952  	0.184702 
1008.770768  	0.189508 
1010.699584  	0.192997 
1012.628400  	0.195055 
1014.557216  	0.196120 
1016.486032  	0.196721 
1018.414848  	0.197035 
1020.343664  	0.197479 
1022.272480  	0.197675 
1024.201296  	0.197439 
1026.130112  	0.196000 
1028.058928  	0.195739 
1029.987744  	0.197735 
1031.916560  	0.199826 
1033.845376  	0.201487 
1035.774192  	0.203214 
1037.703008  	0.205955 
1039.631824  	0.210972 
1041.560640  	0.217380 
1043.489456  	0.225962 
1045.418272  	0.236664 
1047.347088  	0.249503 
1049.275904  	0.263012 
1051.204720  	0.275898 
1053.133536  	0.286313 
1055.062352  	0.294067 
1056.991168  	0.298374 
1058.919984  	0.301790 
1060.848800  	0.302872 
1062.777616  	0.300955 
1064.706432  	0.295645 
1066.635248  	0.290219 
1068.564064  	0.286354 
1070.492880  	0.281522 
1072.421696  	0.274590 
1074.350512  	0.268011 
1076.279328  	0.263318 
1078.208144  	0.260542 
1080.136960  	0.258350 
1082.065776  	0.256756 
1083.994592  	0.254843 
1085.923408  	0.253004 
1087.852224  	0.250136 
1089.781040  	0.246596 
1091.709856  	0.241872 
1093.638672  	0.235349 
1095.567488  	0.227001 
1097.496304  	0.217919 
1099.425120  	0.208259 
1101.353936  	0.198807 
1103.282752  	0.188916 
1105.211568  	0.178950 
1107.140384  	0.169258 
1109.069200  	0.159643 
1110.998016  	0.150666 
1112.926832  	0.142713 
1114.855648  	0.134776 
1116.784464  	0.126746 
1118.713280  	0.119842 
1120.642096  	0.113517 
1122.570912  	0.107124 
1124.499728  	0.101107 
1126.428544  	0.095520 
1128.357360  	0.090333 
1130.286176  	0.085668 
1132.214992  	0.081728 
1134.143808  	0.078428 
1136.072624  	0.075366 
1138.001440  	0.072321 
1139.930256  	0.069278 
1141.859072  	0.066790 
1143.787888  	0.064227 
1145.716704  	0.062008 
1147.645520  	0.060218 
1149.574336  	0.058987 
1151.503152  	0.058233 
1153.431968  	0.057995 
1155.360784  	0.058078 
1157.289600  	0.058732 
1159.218416  	0.059646 
1161.147232  	0.061005 
1163.076048  	0.062483 
1165.004864  	0.064398 
1166.933680  	0.066195 
1168.862496  	0.068369 
1170.791312  	0.070959 
1172.720128  	0.073450 
1174.648944  	0.075856 
1176.577760  	0.078641 
1178.506576  	0.081452 
1180.435392  	0.084042 
1182.364208  	0.086613 
1184.293024  	0.089528 
1186.221840  	0.092387 
1188.150656  	0.095588 
1190.079472  	0.099441 
1192.008288  	0.104009 
1193.937104  	0.109270 
1195.865920  	0.115221 
1197.794736  	0.121459 
1199.723552  	0.128329 
1201.652368  	0.135501 
1203.581184  	0.142617 
1205.510000  	0.149557 
1207.438816  	0.156481 
1209.367632  	0.163318 
1211.296448  	0.169548 
1213.225264  	0.175100 
1215.154080  	0.179606 
1217.082896  	0.183166 
1219.011712  	0.185978 
1220.940528  	0.188550 
1222.869344  	0.190230 
1224.798160  	0.191408 
1226.726976  	0.192031 
1228.655792  	0.192208 
1230.584608  	0.191887 
1232.513424  	0.190854 
1234.442240  	0.188741 
1236.371056  	0.185962 
1238.299872  	0.182108 
1240.228688  	0.176583 
1242.157504  	0.170474 
1244.086320  	0.164901 
1246.015136  	0.158362 
1247.943952  	0.151294 
1249.872768  	0.144150 
1251.801584  	0.137569 
1253.730400  	0.131056 
1255.659216  	0.124750 
1257.588032  	0.118661 
1259.516848  	0.113062 
1261.445664  	0.107955 
1263.374480  	0.103253 
1265.303296  	0.098982 
1267.232112  	0.095573 
1269.160928  	0.093071 
1271.089744  	0.091296 
1273.018560  	0.090307 
1274.947376  	0.089897 
1276.876192  	0.089614 
1278.805008  	0.088919 
1280.733824  	0.087304 
1282.662640  	0.084431 
1284.591456  	0.080836 
1286.520272  	0.077252 
1288.449088  	0.074171 
1290.377904  	0.071821 
1292.306720  	0.070154 
1294.235536  	0.068067 
1296.164352  	0.065083 
1298.093168  	0.061531 
1300.021984  	0.058087 
1301.950800  	0.054932 
1303.879616  	0.052242 
1305.808432  	0.050022 
1307.737248  	0.048157 
1309.666064  	0.046564 
1311.594880  	0.045674 
1313.523696  	0.045125 
1315.452512  	0.044896 
1317.381328  	0.045134 
1319.310144  	0.045775 
1321.238960  	0.046557 
1323.167776  	0.047454 
1325.096592  	0.048035 
1327.025408  	0.048229 
1328.954224  	0.047974 
1330.883040  	0.047311 
1332.811856  	0.046347 
1334.740672  	0.045411 
1336.669488  	0.044426 
1338.598304  	0.043776 
1340.527120  	0.043286 
1342.455936  	0.042798 
1344.384752  	0.042688 
1346.313568  	0.043387 
1348.242384  	0.044571 
1350.171200  	0.046193 
1352.100016  	0.047993 
1354.028832  	0.049891 
1355.957648  	0.051946 
1357.886464  	0.054029 
1359.815280  	0.055537 
1361.744096  	0.056869 
1363.672912  	0.058587 
1365.601728  	0.059675 
1367.530544  	0.060066 
1369.459360  	0.060051 
1371.388176  	0.059225 
1373.316992  	0.057550 
1375.245808  	0.055617 
1377.174624  	0.053771 
1379.103440  	0.051664 
1381.032256  	0.049671 
1382.961072  	0.048219 
1384.889888  	0.047210 
1386.818704  	0.046391 
1388.747520  	0.045683 
1390.676336  	0.044084 
1392.605152  	0.041387 
1394.533968  	0.040045 
1396.462784  	0.041918 
1398.391600  	0.042728 
1400.320416  	0.043446 
1402.249232  	0.043768 
1404.178048  	0.044408 
1406.106864  	0.045821 
1408.035680  	0.047718 
1409.964496  	0.049742 
1411.893312  	0.052246 
1413.822128  	0.054517 
1415.750944  	0.056324 
1417.679760  	0.056956 
1419.608576  	0.057597 
1421.537392  	0.057764 
1423.466208  	0.057048 
1425.395024  	0.055961 
1427.323840  	0.054277 
1429.252656  	0.052294 
1431.181472  	0.051229 
1433.110288  	0.050775 
1435.039104  	0.050318 
1436.967920  	0.050950 
1438.896736  	0.052197 
1440.825552  	0.052697 
1442.754368  	0.053218 
1444.683184  	0.053204 
1446.612000  	0.052923 
1448.540816  	0.052902 
1450.469632  	0.053256 
1452.398448  	0.053304 
1454.327264  	0.052927 
1456.256080  	0.052229 
1458.184896  	0.053539 
1460.113712  	0.054962 
1462.042528  	0.055379 
1463.971344  	0.055289 
1465.900160  	0.057511 
1467.828976  	0.059974 
1469.757792  	0.061936 
1471.686608  	0.064105 
1473.615424  	0.069300 
1475.544240  	0.073279 
1477.473056  	0.076483 
1479.401872  	0.077766 
1481.330688  	0.078349 
1483.259504  	0.078406 
1485.188320  	0.077490 
1487.117136  	0.075263 
1489.045952  	0.072929 
1490.974768  	0.070460 
1492.903584  	0.067859 
1494.832400  	0.064069 
1496.761216  	0.059802 
1498.690032  	0.056565 
1500.618848  	0.054368 
1502.547664  	0.051882 
1504.476480  	0.048355 
1506.405296  	0.044843 
1508.334112  	0.045714 
1510.262928  	0.045678 
1512.191744  	0.044819 
1514.120560  	0.043640 
1516.049376  	0.042823 
1517.978192  	0.043254 
1519.907008  	0.043645 
1521.835824  	0.045844 
1523.764640  	0.049234 
1525.693456  	0.051892 
1527.622272  	0.054492 
1529.551088  	0.056054 
1531.479904  	0.056034 
1533.408720  	0.055065 
1535.337536  	0.054579 
1537.266352  	0.051797 
1539.195168  	0.046894 
1541.123984  	0.044774 
1543.052800  	0.045373 
1544.981616  	0.045187 
1546.910432  	0.044825 
1548.839248  	0.043937 
1550.768064  	0.043959 
1552.696880  	0.043631 
1554.625696  	0.044000 
1556.554512  	0.043060 
1558.483328  	0.042207 
1560.412144  	0.048957 
1562.340960  	0.052580 
1564.269776  	0.054685 
1566.198592  	0.058513 
1568.127408  	0.061241 
1570.056224  	0.066445 
1571.985040  	0.071447 
1573.913856  	0.073301 
1575.842672  	0.074307 
1577.771488  	0.077369 
1579.700304  	0.077977 
1581.629120  	0.078168 
1583.557936  	0.078569 
1585.486752  	0.080114 
1587.415568  	0.082726 
1589.344384  	0.086896 
1591.273200  	0.091746 
1593.202016  	0.097291 
1595.130832  	0.102623 
1597.059648  	0.107926 
1598.988464  	0.111867 
1600.917280  	0.115075 
1602.846096  	0.116871 
1604.774912  	0.117946 
1606.703728  	0.117452 
1608.632544  	0.116856 
1610.561360  	0.116119 
1612.490176  	0.115888 
1614.418992  	0.114848 
1616.347808  	0.115675 
1618.276624  	0.119807 
1620.205440  	0.123457 
1622.134256  	0.126595 
1624.063072  	0.133776 
1625.991888  	0.140422 
1627.920704  	0.147597 
1629.849520  	0.155709 
1631.778336  	0.162228 
1633.707152  	0.166310 
1635.635968  	0.173092 
1637.564784  	0.181364 
1639.493600  	0.185868 
1641.422416  	0.189145 
1643.351232  	0.191021 
1645.280048  	0.190610 
1647.208864  	0.191689 
1649.137680  	0.192594 
1651.066496  	0.190132 
1652.995312  	0.186720 
1654.924128  	0.189010 
1656.852944  	0.187965 
1658.781760  	0.186132 
1660.710576  	0.183657 
1662.639392  	0.181410 
1664.568208  	0.180308 
1666.497024  	0.178412 
1668.425840  	0.175422 
1670.354656  	0.174011 
1672.283472  	0.173443 
1674.212288  	0.172217 
1676.141104  	0.172429 
1678.069920  	0.172708 
1679.998736  	0.172313 
1681.927552  	0.171256 
1683.856368  	0.169891 
1685.785184  	0.172553 
1687.714000  	0.171969 
1689.642816  	0.170464 
1691.571632  	0.168673 
1693.500448  	0.165596 
1695.429264  	0.160762 
1697.358080  	0.157008 
1699.286896  	0.152580 
1701.215712  	0.148693 
1703.144528  	0.145331 
1705.073344  	0.140174 
1707.002160  	0.135198 
1708.930976  	0.130558 
1710.859792  	0.125070 
1712.788608  	0.118828 
1714.717424  	0.111820 
1716.646240  	0.104127 
1718.575056  	0.097356 
1720.503872  	0.091989 
1722.432688  	0.086237 
1724.361504  	0.079613 
1726.290320  	0.073662 
1728.219136  	0.067641 
1730.147952  	0.061930 
1732.076768  	0.056194 
1734.005584  	0.050380 
1735.934400  	0.046027 
1737.863216  	0.042559 
1739.792032  	0.037808 
1741.720848  	0.034710 
1743.649664  	0.031692 
1745.578480  	0.028868 
1747.507296  	0.025686 
1749.436112  	0.023751 
1751.364928  	0.022786 
1753.293744  	0.022046 
1755.222560  	0.020335 
1757.151376  	0.019438 
1759.080192  	0.018485 
1761.009008  	0.017822 
1762.937824  	0.017485 
1764.866640  	0.017221 
1766.795456  	0.016204 
1768.724272  	0.015617 
1770.653088  	0.013933 
1772.581904  	0.013760 
1774.510720  	0.014585 
1776.439536  	0.015024 
1778.368352  	0.014759 
1780.297168  	0.014691 
1782.225984  	0.014518 
1784.154800  	0.014436 
1786.083616  	0.014355 
1788.012432  	0.014062 
1789.941248  	0.013016 
1791.870064  	0.012645 
1793.798880  	0.012988 
1795.727696  	0.013449 
1797.656512  	0.013013 
1799.585328  	0.012647 
1801.514144  	0.012739 
1803.442960  	0.012848 
1805.371776  	0.012493 
1807.300592  	0.012365 
1809.229408  	0.011757 
1811.158224  	0.011716 
1813.087040  	0.011677 
1815.015856  	0.011605 
1816.944672  	0.011553 
1818.873488  	0.011831 
1820.802304  	0.011773 
1822.731120  	0.011617 
1824.659936  	0.011201 
1826.588752  	0.011502 
1828.517568  	0.010929 
1830.446384  	0.011322 
1832.375200  	0.011848 
1834.304016  	0.011905 
1836.232832  	0.011583 
1838.161648  	0.011990 
1840.090464  	0.011965 
1842.019280  	0.011302 
1843.948096  	0.010645 
1845.876912  	0.011506 
1847.805728  	0.011770 
1849.734544  	0.011969 
1851.663360  	0.011873 
1853.592176  	0.011961 
1855.520992  	0.011858 
1857.449808  	0.012198 
1859.378624  	0.011877 
1861.307440  	0.011673 
1863.236256  	0.011543 
1865.165072  	0.011409 
1867.093888  	0.010832 
1869.022704  	0.011222 
1870.951520  	0.011426 
1872.880336  	0.011625 
1874.809152  	0.011291 
1876.737968  	0.011471 
1878.666784  	0.011263 
1880.595600  	0.011516 
1882.524416  	0.011501 
1884.453232  	0.011427 
1886.382048  	0.011269 
1888.310864  	0.011189 
1890.239680  	0.011434 
1892.168496  	0.011928 
1894.097312  	0.011403 
1896.026128  	0.011644 
1897.954944  	0.011513 
1899.883760  	0.011540 
1901.812576  	0.011405 
1903.741392  	0.011387 
1905.670208  	0.011181 
1907.599024  	0.011220 
1909.527840  	0.010972 
1911.456656  	0.011505 
1913.385472  	0.011819 
1915.314288  	0.011822 
1917.243104  	0.011210 
1919.171920  	0.011281 
1921.100736  	0.010926 
1923.029552  	0.011413 
1924.958368  	0.011159 
1926.887184  	0.011147 
1928.816000  	0.010756 
1930.744816  	0.010679 
1932.673632  	0.010442 
1934.602448  	0.011214 
1936.531264  	0.011729 
1938.460080  	0.011848 
1940.388896  	0.011292 
1942.317712  	0.011125 
1944.246528  	0.010746 
1946.175344  	0.011538 
1948.104160  	0.011170 
1950.032976  	0.011452 
1951.961792  	0.011972 
1953.890608  	0.012286 
1955.819424  	0.010889 
1957.748240  	0.011349 
1959.677056  	0.011830 
1961.605872  	0.011514 
1963.534688  	0.011026 
1965.463504  	0.011937 
1967.392320  	0.011523 
1969.321136  	0.011688 
1971.249952  	0.012433 
1973.178768  	0.013481 
1975.107584  	0.011866 
1977.036400  	0.012096 
1978.965216  	0.014537 
1980.894032  	0.014441 
1982.822848  	0.012508 
1984.751664  	0.013200 
1986.680480  	0.013693 
1988.609296  	0.013269 
1990.538112  	0.012200 
1992.466928  	0.013109 
1994.395744  	0.012468 
1996.324560  	0.012483 
1998.253376  	0.012328 
2000.182192  	0.012649 
2002.111008  	0.012526 
2004.039824  	0.012840 
2005.968640  	0.011790 
2007.897456  	0.012189 
2009.826272  	0.011720 
2011.755088  	0.011445 
2013.683904  	0.011932 
2015.612720  	0.013058 
2017.541536  	0.012540 
2019.470352  	0.012478 
2021.399168  	0.011855 
2023.327984  	0.012471 
2025.256800  	0.012550 
2027.185616  	0.012161 
2029.114432  	0.011317 
2031.043248  	0.012873 
2032.972064  	0.012947 
2034.900880  	0.013403 
2036.829696  	0.013332 
2038.758512  	0.012672 
2040.687328  	0.011980 
2042.616144  	0.011913 
2044.544960  	0.011650 
2046.473776  	0.012618 
2048.402592  	0.012693 
2050.331408  	0.013718 
2052.260224  	0.012864 
2054.189040  	0.011991 
2056.117856  	0.011599 
2058.046672  	0.011582 
2059.975488  	0.011109 
2061.904304  	0.011620 
2063.833120  	0.012215 
2065.761936  	0.012588 
2067.690752  	0.012222 
2069.619568  	0.011943 
2071.548384  	0.011255 
2073.477200  	0.011640 
2075.406016  	0.012100 
2077.334832  	0.012403 
2079.263648  	0.012087 
2081.192464  	0.011851 
2083.121280  	0.012306 
2085.050096  	0.012456 
2086.978912  	0.012298 
2088.907728  	0.012549 
2090.836544  	0.011882 
2092.765360  	0.011540 
2094.694176  	0.011771 
2096.622992  	0.011973 
2098.551808  	0.011746 
2100.480624  	0.012042 
2102.409440  	0.011882 
2104.338256  	0.012159 
2106.267072  	0.012077 
2108.195888  	0.011974 
2110.124704  	0.012408 
2112.053520  	0.012908 
2113.982336  	0.012652 
2115.911152  	0.012468 
2117.839968  	0.011774 
2119.768784  	0.011389 
2121.697600  	0.011110 
2123.626416  	0.010826 
2125.555232  	0.010525 
2127.484048  	0.010643 
2129.412864  	0.010282 
2131.341680  	0.009745 
2133.270496  	0.009706 
2135.199312  	0.010257 
2137.128128  	0.010822 
2139.056944  	0.011525 
2140.985760  	0.010725 
2142.914576  	0.011002 
2144.843392  	0.011074 
2146.772208  	0.011586 
2148.701024  	0.011712 
2150.629840  	0.011500 
2152.558656  	0.010013 
2154.487472  	0.009972 
2156.416288  	0.009545 
2158.345104  	0.012083 
2160.273920  	0.016076 
2162.202736  	0.016768 
2164.131552  	0.015471 
2166.060368  	0.016516 
2167.989184  	0.014900 
2169.918000  	0.013679 
2171.846816  	0.013535 
2173.775632  	0.014058 
2175.704448  	0.014146 
2177.633264  	0.014293 
2179.562080  	0.014142 
2181.490896  	0.013949 
2183.419712  	0.013471 
2185.348528  	0.014062 
2187.277344  	0.014171 
2189.206160  	0.014473 
2191.134976  	0.014719 
2193.063792  	0.015731 
2194.992608  	0.015656 
2196.921424  	0.014338 
2198.850240  	0.014260 
2200.779056  	0.014669 
2202.707872  	0.014449 
2204.636688  	0.014522 
2206.565504  	0.014012 
2208.494320  	0.014312 
2210.423136  	0.013406 
2212.351952  	0.013099 
2214.280768  	0.013207 
2216.209584  	0.012781 
2218.138400  	0.012833 
2220.067216  	0.013144 
2221.996032  	0.012937 
2223.924848  	0.012708 
2225.853664  	0.012955 
2227.782480  	0.013768 
2229.711296  	0.014151 
2231.640112  	0.014102 
2233.568928  	0.013312 
2235.497744  	0.012918 
2237.426560  	0.012553 
2239.355376  	0.012827 
2241.284192  	0.012815 
2243.213008  	0.012750 
2245.141824  	0.012764 
2247.070640  	0.012481 
2248.999456  	0.012303 
2250.928272  	0.012675 
2252.857088  	0.012802 
2254.785904  	0.012638 
2256.714720  	0.013032 
2258.643536  	0.013578 
2260.572352  	0.012944 
2262.501168  	0.012823 
2264.429984  	0.013276 
2266.358800  	0.014103 
2268.287616  	0.013849 
2270.216432  	0.013490 
2272.145248  	0.013381 
2274.074064  	0.013786 
2276.002880  	0.013723 
2277.931696  	0.013946 
2279.860512  	0.014337 
2281.789328  	0.014375 
2283.718144  	0.014201 
2285.646960  	0.014445 
2287.575776  	0.014745 
2289.504592  	0.014476 
2291.433408  	0.013945 
2293.362224  	0.013987 
2295.291040  	0.014018 
2297.219856  	0.014229 
2299.148672  	0.014383 
2301.077488  	0.014615 
2303.006304  	0.014678 
2304.935120  	0.014675 
2306.863936  	0.014490 
2308.792752  	0.014432 
2310.721568  	0.014665 
2312.650384  	0.014663 
2314.579200  	0.014014 
2316.508016  	0.013912 
2318.436832  	0.013783 
2320.365648  	0.013748 
2322.294464  	0.013811 
2324.223280  	0.013196 
2326.152096  	0.011600 
2328.080912  	0.010394 
2330.009728  	0.009807 
2331.938544  	0.009690 
2333.867360  	0.008889 
2335.796176  	0.008435 
2337.724992  	0.008471 
2339.653808  	0.008266 
2341.582624  	0.008109 
2343.511440  	0.009345 
2345.440256  	0.010813 
2347.369072  	0.011907 
2349.297888  	0.011475 
2351.226704  	0.010115 
2353.155520  	0.008893 
2355.084336  	0.007774 
2357.013152  	0.006937 
2358.941968  	0.006472 
2360.870784  	0.006533 
2362.799600  	0.007167 
2364.728416  	0.007527 
2366.657232  	0.008211 
2368.586048  	0.008926 
2370.514864  	0.010328 
2372.443680  	0.011479 
2374.372496  	0.012702 
2376.301312  	0.013601 
2378.230128  	0.014334 
2380.158944  	0.014438 
2382.087760  	0.014344 
2384.016576  	0.014288 
2385.945392  	0.014221 
2387.874208  	0.013860 
2389.803024  	0.013588 
2391.731840  	0.013418 
2393.660656  	0.013414 
2395.589472  	0.013648 
2397.518288  	0.013889 
2399.447104  	0.013824 
2401.375920  	0.013659 
2403.304736  	0.013702 
2405.233552  	0.013983 
2407.162368  	0.014145 
2409.091184  	0.014096 
2411.020000  	0.014178 
2412.948816  	0.014493 
2414.877632  	0.014480 
2416.806448  	0.014367 
2418.735264  	0.014504 
2420.664080  	0.014509 
2422.592896  	0.014248 
2424.521712  	0.014394 
2426.450528  	0.014616 
2428.379344  	0.014474 
2430.308160  	0.014523 
2432.236976  	0.014804 
2434.165792  	0.014917 
2436.094608  	0.015269 
2438.023424  	0.015583 
2439.952240  	0.015678 
2441.881056  	0.015604 
2443.809872  	0.015596 
2445.738688  	0.015811 
2447.667504  	0.015995 
2449.596320  	0.015880 
2451.525136  	0.015966 
2453.453952  	0.016101 
2455.382768  	0.016234 
2457.311584  	0.016426 
2459.240400  	0.016447 
2461.169216  	0.016194 
2463.098032  	0.015998 
2465.026848  	0.015924 
2466.955664  	0.016055 
2468.884480  	0.015981 
2470.813296  	0.016052 
2472.742112  	0.016218 
2474.670928  	0.016244 
2476.599744  	0.016167 
2478.528560  	0.016319 
2480.457376  	0.016499 
2482.386192  	0.016506 
2484.315008  	0.016536 
2486.243824  	0.016786 
2488.172640  	0.016651 
2490.101456  	0.016584 
2492.030272  	0.016857 
2493.959088  	0.016865 
2495.887904  	0.016839 
2497.816720  	0.017156 
2499.745536  	0.017215 
2501.674352  	0.017247 
2503.603168  	0.017279 
2505.531984  	0.017341 
2507.460800  	0.017356 
2509.389616  	0.017437 
2511.318432  	0.017382 
2513.247248  	0.017454 
2515.176064  	0.017670 
2517.104880  	0.018102 
2519.033696  	0.018194 
2520.962512  	0.018072 
2522.891328  	0.018237 
2524.820144  	0.018313 
2526.748960  	0.018259 
2528.677776  	0.018403 
2530.606592  	0.018389 
2532.535408  	0.018511 
2534.464224  	0.018836 
2536.393040  	0.018828 
2538.321856  	0.018598 
2540.250672  	0.018871 
2542.179488  	0.018912 
2544.108304  	0.018941 
2546.037120  	0.019025 
2547.965936  	0.019309 
2549.894752  	0.019424 
2551.823568  	0.019388 
2553.752384  	0.019406 
2555.681200  	0.019543 
2557.610016  	0.019557 
2559.538832  	0.019731 
2561.467648  	0.019899 
2563.396464  	0.020103 
2565.325280  	0.020220 
2567.254096  	0.020138 
2569.182912  	0.020068 
2571.111728  	0.020140 
2573.040544  	0.019971 
2574.969360  	0.019788 
2576.898176  	0.019904 
2578.826992  	0.020311 
2580.755808  	0.020471 
2582.684624  	0.020475 
2584.613440  	0.020489 
2586.542256  	0.020682 
2588.471072  	0.020816 
2590.399888  	0.020782 
2592.328704  	0.020842 
2594.257520  	0.021124 
2596.186336  	0.021420 
2598.115152  	0.021312 
2600.043968  	0.021117 
2601.972784  	0.021324 
2603.901600  	0.021584 
2605.830416  	0.021637 
2607.759232  	0.021430 
2609.688048  	0.021650 
2611.616864  	0.021901 
2613.545680  	0.022110 
2615.474496  	0.022159 
2617.403312  	0.022080 
2619.332128  	0.022224 
2621.260944  	0.022486 
2623.189760  	0.022535 
2625.118576  	0.022579 
2627.047392  	0.022613 
2628.976208  	0.022897 
2630.905024  	0.023059 
2632.833840  	0.023199 
2634.762656  	0.023320 
2636.691472  	0.023368 
2638.620288  	0.023426 
2640.549104  	0.023483 
2642.477920  	0.023564 
2644.406736  	0.023666 
2646.335552  	0.023796 
2648.264368  	0.024014 
2650.193184  	0.024110 
2652.122000  	0.024289 
2654.050816  	0.024444 
2655.979632  	0.024374 
2657.908448  	0.024437 
2659.837264  	0.024584 
2661.766080  	0.024531 
2663.694896  	0.024555 
2665.623712  	0.024536 
2667.552528  	0.024497 
2669.481344  	0.024705 
2671.410160  	0.024967 
2673.338976  	0.025130 
2675.267792  	0.025320 
2677.196608  	0.025404 
2679.125424  	0.025499 
2681.054240  	0.025559 
2682.983056  	0.025683 
2684.911872  	0.025977 
2686.840688  	0.026117 
2688.769504  	0.026130 
2690.698320  	0.026234 
2692.627136  	0.026317 
2694.555952  	0.026320 
2696.484768  	0.026334 
2698.413584  	0.026526 
2700.342400  	0.026672 
2702.271216  	0.026844 
2704.200032  	0.027001 
2706.128848  	0.027142 
2708.057664  	0.027252 
2709.986480  	0.027344 
2711.915296  	0.027445 
2713.844112  	0.027549 
2715.772928  	0.027715 
2717.701744  	0.027884 
2719.630560  	0.027904 
2721.559376  	0.027976 
2723.488192  	0.028188 
2725.417008  	0.028506 
2727.345824  	0.028656 
2729.274640  	0.028636 
2731.203456  	0.028565 
2733.132272  	0.028746 
2735.061088  	0.028936 
2736.989904  	0.029023 
2738.918720  	0.029056 
2740.847536  	0.029090 
2742.776352  	0.029261 
2744.705168  	0.029438 
2746.633984  	0.029490 
2748.562800  	0.029543 
2750.491616  	0.029666 
2752.420432  	0.029689 
2754.349248  	0.029702 
2756.278064  	0.029810 
2758.206880  	0.029858 
2760.135696  	0.030002 
2762.064512  	0.030019 
2763.993328  	0.030071 
2765.922144  	0.030085 
2767.850960  	0.030066 
2769.779776  	0.030124 
2771.708592  	0.030209 
2773.637408  	0.030238 
2775.566224  	0.030233 
2777.495040  	0.030291 
2779.423856  	0.030429 
2781.352672  	0.030577 
2783.281488  	0.030675 
2785.210304  	0.030706 
2787.139120  	0.030868 
2789.067936  	0.031042 
2790.996752  	0.031090 
2792.925568  	0.031264 
2794.854384  	0.031469 
2796.783200  	0.031445 
2798.712016  	0.031305 
2800.640832  	0.031331 
2802.569648  	0.031556 
2804.498464  	0.031645 
2806.427280  	0.031643 
2808.356096  	0.031787 
2810.284912  	0.031967 
2812.213728  	0.031857 
2814.142544  	0.031752 
2816.071360  	0.031948 
2818.000176  	0.032010 
2819.928992  	0.031863 
2821.857808  	0.031948 
2823.786624  	0.032018 
2825.715440  	0.031928 
2827.644256  	0.031834 
2829.573072  	0.031935 
2831.501888  	0.031895 
2833.430704  	0.031727 
2835.359520  	0.031573 
2837.288336  	0.031358 
2839.217152  	0.031219 
2841.145968  	0.031164 
2843.074784  	0.031031 
2845.003600  	0.030917 
2846.932416  	0.030994 
2848.861232  	0.031067 
2850.790048  	0.030846 
2852.718864  	0.030442 
2854.647680  	0.029950 
2856.576496  	0.029627 
2858.505312  	0.029311 
2860.434128  	0.028938 
2862.362944  	0.028517 
2864.291760  	0.028166 
2866.220576  	0.027815 
2868.149392  	0.027811 
2870.078208  	0.027961 
2872.007024  	0.028128 
2873.935840  	0.028365 
2875.864656  	0.028536 
2877.793472  	0.028725 
2879.722288  	0.028861 
2881.651104  	0.028754 
2883.579920  	0.028624 
2885.508736  	0.028698 
2887.437552  	0.029011 
2889.366368  	0.029090 
2891.295184  	0.028950 
2893.224000  	0.029008 
2895.152816  	0.029225 
2897.081632  	0.028942 
2899.010448  	0.027887 
2900.939264  	0.027200 
2902.868080  	0.028050 
2904.796896  	0.029002 
2906.725712  	0.029571 
2908.654528  	0.029976 
2910.583344  	0.030409 
2912.512160  	0.031391 
2914.440976  	0.032522 
2916.369792  	0.033268 
2918.298608  	0.033886 
2920.227424  	0.034488 
2922.156240  	0.035034 
2924.085056  	0.035485 
2926.013872  	0.036078 
2927.942688  	0.036849 
2929.871504  	0.037609 
2931.800320  	0.038263 
2933.729136  	0.038557 
2935.657952  	0.038760 
2937.586768  	0.039257 
2939.515584  	0.039405 
2941.444400  	0.039410 
2943.373216  	0.039691 
2945.302032  	0.039964 
2947.230848  	0.039971 
2949.159664  	0.039784 
2951.088480  	0.039441 
2953.017296  	0.039194 
2954.946112  	0.038632 
2956.874928  	0.037923 
2958.803744  	0.037285 
2960.732560  	0.036751 
2962.661376  	0.036287 
2964.590192  	0.035646 
2966.519008  	0.034797 
2968.447824  	0.034020 
2970.376640  	0.033441 
2972.305456  	0.032835 
2974.234272  	0.032554 
2976.163088  	0.032573 
2978.091904  	0.032599 
2980.020720  	0.032455 
2981.949536  	0.032437 
2983.878352  	0.032142 
2985.807168  	0.031458 
2987.735984  	0.031051 
2989.664800  	0.031464 
2991.593616  	0.033275 
2993.522432  	0.034329 
2995.451248  	0.034631 
2997.380064  	0.035111 
2999.308880  	0.035788 
3001.237696  	0.036609 
3003.166512  	0.037404 
3005.095328  	0.038199 
3007.024144  	0.039258 
3008.952960  	0.040218 
3010.881776  	0.041149 
3012.810592  	0.041948 
3014.739408  	0.042652 
3016.668224  	0.043555 
3018.597040  	0.044277 
3020.525856  	0.044791 
3022.454672  	0.045411 
3024.383488  	0.046054 
3026.312304  	0.046751 
3028.241120  	0.047291 
3030.169936  	0.047582 
3032.098752  	0.048282 
3034.027568  	0.048656 
3035.956384  	0.048937 
3037.885200  	0.049498 
3039.814016  	0.049975 
3041.742832  	0.050457 
3043.671648  	0.050877 
3045.600464  	0.051161 
3047.529280  	0.051467 
3049.458096  	0.051793 
3051.386912  	0.052095 
3053.315728  	0.052465 
3055.244544  	0.052933 
3057.173360  	0.053515 
3059.102176  	0.053883 
3061.030992  	0.054098 
3062.959808  	0.054324 
3064.888624  	0.054778 
3066.817440  	0.055296 
3068.746256  	0.055726 
3070.675072  	0.056183 
3072.603888  	0.056633 
3074.532704  	0.057169 
3076.461520  	0.057547 
3078.390336  	0.057777 
3080.319152  	0.058297 
3082.247968  	0.058777 
3084.176784  	0.059150 
3086.105600  	0.059422 
3088.034416  	0.059770 
3089.963232  	0.060311 
3091.892048  	0.060760 
3093.820864  	0.061202 
3095.749680  	0.061668 
3097.678496  	0.061828 
3099.607312  	0.062247 
3101.536128  	0.062662 
3103.464944  	0.062921 
3105.393760  	0.063179 
3107.322576  	0.063589 
3109.251392  	0.064031 
3111.180208  	0.064307 
3113.109024  	0.064585 
3115.037840  	0.064862 
3116.966656  	0.065059 
3118.895472  	0.065329 
3120.824288  	0.065709 
3122.753104  	0.066067 
3124.681920  	0.066326 
3126.610736  	0.066515 
3128.539552  	0.066826 
3130.468368  	0.067087 
3132.397184  	0.067221 
3134.326000  	0.067362 
3136.254816  	0.067591 
3138.183632  	0.067877 
3140.112448  	0.068021 
3142.041264  	0.068330 
3143.970080  	0.068642 
3145.898896  	0.068800 
3147.827712  	0.069067 
3149.756528  	0.069470 
3151.685344  	0.069998 
3153.614160  	0.070435 
3155.542976  	0.070441 
3157.471792  	0.070664 
3159.400608  	0.071341 
3161.329424  	0.071744 
3163.258240  	0.071928 
3165.187056  	0.072084 
3167.115872  	0.072254 
3169.044688  	0.072428 
3170.973504  	0.072542 
3172.902320  	0.072684 
3174.831136  	0.072884 
3176.759952  	0.073210 
3178.688768  	0.073543 
3180.617584  	0.073554 
3182.546400  	0.073259 
3184.475216  	0.073510 
3186.404032  	0.073813 
3188.332848  	0.073794 
3190.261664  	0.073827 
3192.190480  	0.073968 
3194.119296  	0.073728 
3196.048112  	0.073735 
3197.976928  	0.074157 
3199.905744  	0.074159 
3201.834560  	0.073870 
3203.763376  	0.073841 
3205.692192  	0.073813 
3207.621008  	0.073592 
3209.549824  	0.073283 
3211.478640  	0.073278 
3213.407456  	0.073244 
3215.336272  	0.073284 
3217.265088  	0.073123 
3219.193904  	0.072736 
3221.122720  	0.072363 
3223.051536  	0.072100 
3224.980352  	0.071806 
3226.909168  	0.071521 
3228.837984  	0.071331 
3230.766800  	0.071320 
3232.695616  	0.071427 
3234.624432  	0.071381 
3236.553248  	0.071166 
3238.482064  	0.071042 
3240.410880  	0.071106 
3242.339696  	0.070958 
3244.268512  	0.070847 
3246.197328  	0.070894 
3248.126144  	0.070868 
3250.054960  	0.070806 
3251.983776  	0.070905 
3253.912592  	0.071060 
3255.841408  	0.071150 
3257.770224  	0.071275 
3259.699040  	0.071348 
3261.627856  	0.071234 
3263.556672  	0.071354 
3265.485488  	0.071586 
3267.414304  	0.071716 
3269.343120  	0.071788 
3271.271936  	0.071963 
3273.200752  	0.072067 
3275.129568  	0.072135 
3277.058384  	0.072256 
3278.987200  	0.072438 
3280.916016  	0.072578 
3282.844832  	0.072593 
3284.773648  	0.072568 
3286.702464  	0.072692 
3288.631280  	0.073001 
3290.560096  	0.073194 
3292.488912  	0.073476 
3294.417728  	0.073578 
3296.346544  	0.073651 
3298.275360  	0.073851 
3300.204176  	0.074122 
3302.132992  	0.074247 
3304.061808  	0.074467 
3305.990624  	0.074988 
3307.919440  	0.075127 
3309.848256  	0.074884 
3311.777072  	0.074848 
3313.705888  	0.075271 
3315.634704  	0.075768 
3317.563520  	0.076013 
3319.492336  	0.076096 
3321.421152  	0.076020 
3323.349968  	0.076271 
3325.278784  	0.076669 
3327.207600  	0.076677 
3329.136416  	0.076563 
3331.065232  	0.076473 
3332.994048  	0.076530 
3334.922864  	0.076614 
3336.851680  	0.076592 
3338.780496  	0.076482 
3340.709312  	0.076213 
3342.638128  	0.076051 
3344.566944  	0.075884 
3346.495760  	0.075658 
3348.424576  	0.075497 
3350.353392  	0.075310 
3352.282208  	0.074953 
3354.211024  	0.074804 
3356.139840  	0.074828 
3358.068656  	0.074521 
3359.997472  	0.074080 
3361.926288  	0.073714 
3363.855104  	0.073243 
3365.783920  	0.072874 
3367.712736  	0.072796 
3369.641552  	0.072714 
3371.570368  	0.072287 
3373.499184  	0.071862 
3375.428000  	0.071503 
3377.356816  	0.071175 
3379.285632  	0.070812 
3381.214448  	0.070657 
3383.143264  	0.070578 
3385.072080  	0.070348 
3387.000896  	0.069888 
3388.929712  	0.069559 
3390.858528  	0.069197 
3392.787344  	0.068679 
3394.716160  	0.068214 
3396.644976  	0.068088 
3398.573792  	0.067667 
3400.502608  	0.067000 
3402.431424  	0.066655 
3404.360240  	0.066448 
3406.289056  	0.066050 
3408.217872  	0.065708 
3410.146688  	0.065249 
3412.075504  	0.065181 
3414.004320  	0.065133 
3415.933136  	0.064535 
3417.861952  	0.063918 
3419.790768  	0.063630 
3421.719584  	0.063384 
3423.648400  	0.063018 
3425.577216  	0.062641 
3427.506032  	0.062309 
3429.434848  	0.061743 
3431.363664  	0.061335 
3433.292480  	0.060926 
3435.221296  	0.060530 
3437.150112  	0.060286 
3439.078928  	0.060079 
3441.007744  	0.059706 
3442.936560  	0.059419 
3444.865376  	0.058828 
3446.794192  	0.058019 
3448.723008  	0.057904 
3450.651824  	0.057401 
3452.580640  	0.056795 
3454.509456  	0.056367 
3456.438272  	0.055891 
3458.367088  	0.055595 
3460.295904  	0.055307 
3462.224720  	0.054812 
3464.153536  	0.054124 
3466.082352  	0.053654 
3468.011168  	0.053317 
3469.939984  	0.052842 
3471.868800  	0.052213 
3473.797616  	0.051737 
3475.726432  	0.051277 
3477.655248  	0.050671 
3479.584064  	0.050059 
3481.512880  	0.049547 
3483.441696  	0.049198 
3485.370512  	0.048579 
3487.299328  	0.048107 
3489.228144  	0.047715 
3491.156960  	0.047026 
3493.085776  	0.046559 
3495.014592  	0.045963 
3496.943408  	0.045540 
3498.872224  	0.045088 
3500.801040  	0.044562 
3502.729856  	0.044025 
3504.658672  	0.043525 
3506.587488  	0.042931 
3508.516304  	0.042556 
3510.445120  	0.042464 
3512.373936  	0.042195 
3514.302752  	0.041855 
3516.231568  	0.041249 
3518.160384  	0.040713 
3520.089200  	0.040332 
3522.018016  	0.039877 
3523.946832  	0.039784 
3525.875648  	0.039443 
3527.804464  	0.038798 
3529.733280  	0.038468 
3531.662096  	0.038098 
3533.590912  	0.037596 
3535.519728  	0.037270 
3537.448544  	0.037102 
3539.377360  	0.036690 
3541.306176  	0.036097 
3543.234992  	0.035504 
3545.163808  	0.035432 
3547.092624  	0.035341 
3549.021440  	0.034713 
3550.950256  	0.034073 
3552.879072  	0.034047 
3554.807888  	0.033997 
3556.736704  	0.033577 
3558.665520  	0.033078 
3560.594336  	0.032779 
3562.523152  	0.032008 
3564.451968  	0.031025 
3566.380784  	0.030776 
3568.309600  	0.031312 
3570.238416  	0.031075 
3572.167232  	0.030208 
3574.096048  	0.029680 
3576.024864  	0.029291 
3577.953680  	0.028854 
3579.882496  	0.028500 
3581.811312  	0.028126 
3583.740128  	0.027301 
3585.668944  	0.026194 
3587.597760  	0.026276 
3589.526576  	0.026540 
3591.455392  	0.025390 
3593.384208  	0.024658 
3595.313024  	0.024268 
3597.241840  	0.023699 
3599.170656  	0.022924 
3601.099472  	0.022661 
3603.028288  	0.022448 
3604.957104  	0.021636 
3606.885920  	0.020536 
3608.814736  	0.020626 
3610.743552  	0.020003 
3612.672368  	0.018819 
3614.601184  	0.018488 
3616.530000  	0.017396 
3618.458816  	0.016770 
3620.387632  	0.017407 
3622.316448  	0.017089 
3624.245264  	0.016067 
3626.174080  	0.014272 
3628.102896  	0.012914 
3630.031712  	0.014462 
3631.960528  	0.014302 
3633.889344  	0.013618 
3635.818160  	0.012949 
3637.746976  	0.012254 
3639.675792  	0.011994 
3641.604608  	0.011466 
3643.533424  	0.010302 
3645.462240  	0.008317 
3647.391056  	0.006397 
3649.319872  	0.005938 
3651.248688  	0.007828 
3653.177504  	0.007786 
3655.106320  	0.006239 
3657.035136  	0.006251 
3658.963952  	0.006114 
3660.892768  	0.005563 
3662.821584  	0.005193 
3664.750400  	0.004642 
3666.679216  	0.003462 
3668.608032  	0.001921 
3670.536848  	0.002550 
3672.465664  	0.002335 
3674.394480  	0.000128 
3676.323296  	0.001849 
3678.252112  	0.003418 
3680.180928  	0.003865 
3682.109744  	0.003748 
3684.038560  	0.003114 
3685.967376  	0.001891 
3687.896192  	0.000807 
3689.825008  	0.001478 
3691.753824  	0.003068 
3693.682640  	0.003653 
3695.611456  	0.003526 
3697.540272  	0.003714 
3699.469088  	0.003389 
3701.397904  	0.003748 
3703.326720  	0.004701 
3705.255536  	0.004622 
3707.184352  	0.003682 
3709.113168  	0.002846 
3711.041984  	0.003187 
3712.970800  	0.004913 
3714.899616  	0.005488 
3716.828432  	0.005004 
3718.757248  	0.004534 
3720.686064  	0.004275 
3722.614880  	0.004845 
3724.543696  	0.005284 
3726.472512  	0.005625 
3728.401328  	0.005367 
3730.330144  	0.003599 
3732.258960  	0.002565 
3734.187776  	0.003050 
3736.116592  	0.005065 
3738.045408  	0.005386 
3739.974224  	0.004484 
3741.903040  	0.003192 
3743.831856  	0.003304 
3745.760672  	0.005165 
3747.689488  	0.003163 
3749.618304  	0.002016 
3751.547120  	0.003497 
3753.475936  	0.005609 
3755.404752  	0.005145 
3757.333568  	0.004489 
3759.262384  	0.004644 
3761.191200  	0.005645 
3763.120016  	0.005421 
3765.048832  	0.005203 
3766.977648  	0.005255 
3768.906464  	0.004977 
3770.835280  	0.005826 
3772.764096  	0.006113 
3774.692912  	0.005792 
3776.621728  	0.005029 
3778.550544  	0.004565 
3780.479360  	0.005368 
3782.408176  	0.005403 
3784.336992  	0.005228 
3786.265808  	0.005666 
3788.194624  	0.005791 
3790.123440  	0.005582 
3792.052256  	0.005531 
3793.981072  	0.005009 
3795.909888  	0.004526 
3797.838704  	0.004570 
3799.767520  	0.003216 
3801.696336  	0.003670 
3803.625152  	0.004849 
3805.553968  	0.003993 
3807.482784  	0.005016 
3809.411600  	0.005875 
3811.340416  	0.005591 
3813.269232  	0.004604 
3815.198048  	0.003734 
3817.126864  	0.004406 
3819.055680  	0.003177 
3820.984496  	0.003618 
3822.913312  	0.005752 
3824.842128  	0.005027 
3826.770944  	0.004728 
3828.699760  	0.004918 
3830.628576  	0.004525 
3832.557392  	0.004408 
3834.486208  	0.003705 
3836.415024  	0.003023 
3838.343840  	0.003862 
3840.272656  	0.004515 
3842.201472  	0.004551 
3844.130288  	0.005033 
3846.059104  	0.005637 
3847.987920  	0.005114 
3849.916736  	0.003680 
3851.845552  	0.001915 
3853.774368  	0.004362 
3855.703184  	0.006099 
3857.632000  	0.005477 
3859.560816  	0.004954 
3861.489632  	0.004446 
3863.418448  	0.004397 
3865.347264  	0.005184 
3867.276080  	0.004688 
3869.204896  	0.004250 
3871.133712  	0.005758 
3873.062528  	0.005114 
3874.991344  	0.005740 
3876.920160  	0.005449 
3878.848976  	0.004418 
3880.777792  	0.005129 
3882.706608  	0.005299 
3884.635424  	0.004591 
3886.564240  	0.005839 
3888.493056  	0.005432 
3890.421872  	0.004874 
3892.350688  	0.005785 
3894.279504  	0.005977 
3896.208320  	0.005443 
3898.137136  	0.004958 
3900.065952  	0.004790 
3901.994768  	0.004671 
3903.923584  	0.005587 
3905.852400  	0.006612 
3907.781216  	0.006398 
3909.710032  	0.006137 
3911.638848  	0.006152 
3913.567664  	0.005907 
3915.496480  	0.005588 
3917.425296  	0.006259 
3919.354112  	0.006578 
3921.282928  	0.006347 
3923.211744  	0.005841 
3925.140560  	0.006023 
3927.069376  	0.005994 
3928.998192  	0.005646 
3930.927008  	0.005900 
3932.855824  	0.006613 
3934.784640  	0.006501 
3936.713456  	0.006311 
3938.642272  	0.006331 
3940.571088  	0.006010 
3942.499904  	0.006255 
3944.428720  	0.006544 
3946.357536  	0.006237 
3948.286352  	0.006301 
3950.215168  	0.006266 
3952.143984  	0.006192 
3954.072800  	0.006163 
3956.001616  	0.006193 
3957.930432  	0.006325 
3959.859248  	0.006504 
3961.788064  	0.006574 
3963.716880  	0.006478 
3965.645696  	0.006382 
3967.574512  	0.006567 
3969.503328  	0.006585 
3971.432144  	0.006482 
3973.360960  	0.006396 
3975.289776  	0.006524 
3977.218592  	0.006669 
3979.147408  	0.006728 
3981.076224  	0.006606 
3983.005040  	0.006496 
3984.933856  	0.006485 
3986.862672  	0.006476 
3988.791488  	0.006350 
3990.720304  	0.006407 
3992.649120  	0.006515 
3994.577936  	0.006413 
3996.506752  	0.006405 
3998.435568  	0.006532 
4000.364384  	0.006551 