##TITLE=No Description
##DATA TYPE=INFRARED SPECTRUM
##XUNITS=1/CM
##YUNITS=Abs
399.264912  	0.578075 
401.193728  	0.571475 
403.122544  	0.563827 
405.051360  	0.549399 
406.980176  	0.547804 
408.908992  	0.542026 
410.837808  	0.545327 
412.766624  	0.551133 
414.695440  	0.550276 
416.624256  	0.529946 
418.553072  	0.526456 
420.481888  	0.535000 
422.410704  	0.530557 
424.339520  	0.516074 
426.268336  	0.526834 
428.197152  	0.527011 
430.125968  	0.514647 
432.054784  	0.504750 
433.983600  	0.506653 
435.912416  	0.498665 
437.841232  	0.497992 
439.770048  	0.500547 
441.698864  	0.500708 
443.627680  	0.496286 
445.556496  	0.493348 
447.485312  	0.488411 
449.414128  	0.487486 
451.342944  	0.487382 
453.271760  	0.490999 
455.200576  	0.488254 
457.129392  	0.485395 
459.058208  	0.483715 
460.987024  	0.486420 
462.915840  	0.482821 
464.844656  	0.486294 
466.773472  	0.488117 
468.702288  	0.487248 
470.631104  	0.483301 
472.559920  	0.485661 
474.488736  	0.481424 
476.417552  	0.477643 
478.346368  	0.476558 
480.275184  	0.480505 
482.204000  	0.477853 
484.132816  	0.476606 
486.061632  	0.474625 
487.990448  	0.474770 
489.919264  	0.473009 
491.848080  	0.471889 
493.776896  	0.466932 
495.705712  	0.466085 
497.634528  	0.464802 
499.563344  	0.464852 
501.492160  	0.461324 
503.420976  	0.461725 
505.349792  	0.462712 
507.278608  	0.464002 
509.207424  	0.462830 
511.136240  	0.464272 
513.065056  	0.463209 
514.993872  	0.463553 
516.922688  	0.462850 
518.851504  	0.463436 
520.780320  	0.461574 
522.709136  	0.461802 
524.637952  	0.460510 
526.566768  	0.458611 
528.495584  	0.457741 
530.424400  	0.457387 
532.353216  	0.453932 
534.282032  	0.450522 
536.210848  	0.445657 
538.139664  	0.442754 
540.068480  	0.439419 
541.997296  	0.436573 
543.926112  	0.431315 
545.854928  	0.429317 
547.783744  	0.426503 
549.712560  	0.422560 
551.641376  	0.418102 
553.570192  	0.415558 
555.499008  	0.412557 
557.427824  	0.410070 
559.356640  	0.406481 
561.285456  	0.403863 
563.214272  	0.399904 
565.143088  	0.396929 
567.071904  	0.392728 
569.000720  	0.389733 
570.929536  	0.386658 
572.858352  	0.384530 
574.787168  	0.382141 
576.715984  	0.379423 
578.644800  	0.375295 
580.573616  	0.371683 
582.502432  	0.367725 
584.431248  	0.365454 
586.360064  	0.364037 
588.288880  	0.362476 
590.217696  	0.359607 
592.146512  	0.357863 
594.075328  	0.355784 
596.004144  	0.353662 
597.932960  	0.351692 
599.861776  	0.351544 
601.790592  	0.350272 
603.719408  	0.347796 
605.648224  	0.346025 
607.577040  	0.346011 
609.505856  	0.344976 
611.434672  	0.344059 
613.363488  	0.342282 
615.292304  	0.340109 
617.221120  	0.337962 
619.149936  	0.337003 
621.078752  	0.334878 
623.007568  	0.332617 
624.936384  	0.330849 
626.865200  	0.329617 
628.794016  	0.328262 
630.722832  	0.327240 
632.651648  	0.325971 
634.580464  	0.325617 
636.509280  	0.325695 
638.438096  	0.324902 
640.366912  	0.323584 
642.295728  	0.322654 
644.224544  	0.320650 
646.153360  	0.317682 
648.082176  	0.314389 
650.010992  	0.311705 
651.939808  	0.307949 
653.868624  	0.305113 
655.797440  	0.302202 
657.726256  	0.299131 
659.655072  	0.295512 
661.583888  	0.291841 
663.512704  	0.288791 
665.441520  	0.286545 
667.370336  	0.281546 
669.299152  	0.277064 
671.227968  	0.276465 
673.156784  	0.274689 
675.085600  	0.272446 
677.014416  	0.270827 
678.943232  	0.269315 
680.872048  	0.267068 
682.800864  	0.265278 
684.729680  	0.264147 
686.658496  	0.262450 
688.587312  	0.260598 
690.516128  	0.258345 
692.444944  	0.257283 
694.373760  	0.256647 
696.302576  	0.255297 
698.231392  	0.252813 
700.160208  	0.249979 
702.089024  	0.247503 
704.017840  	0.246579 
705.946656  	0.244407 
707.875472  	0.241535 
709.804288  	0.239659 
711.733104  	0.238382 
713.661920  	0.236741 
715.590736  	0.235571 
717.519552  	0.235046 
719.448368  	0.235437 
721.377184  	0.235937 
723.306000  	0.235808 
725.234816  	0.235252 
727.163632  	0.234211 
729.092448  	0.231993 
731.021264  	0.229866 
732.950080  	0.227607 
734.878896  	0.224870 
736.807712  	0.222520 
738.736528  	0.220987 
740.665344  	0.219438 
742.594160  	0.217835 
744.522976  	0.216136 
746.451792  	0.214766 
748.380608  	0.213513 
750.309424  	0.212781 
752.238240  	0.212039 
754.167056  	0.211751 
756.095872  	0.210945 
758.024688  	0.209795 
759.953504  	0.208950 
761.882320  	0.208867 
763.811136  	0.208929 
765.739952  	0.208493 
767.668768  	0.207045 
769.597584  	0.205658 
771.526400  	0.205392 
773.455216  	0.206512 
775.384032  	0.208192 
777.312848  	0.210585 
779.241664  	0.213637 
781.170480  	0.214322 
783.099296  	0.211486 
785.028112  	0.207268 
786.956928  	0.202132 
788.885744  	0.197616 
790.814560  	0.194533 
792.743376  	0.192586 
794.672192  	0.190851 
796.601008  	0.189761 
798.529824  	0.188257 
800.458640  	0.185357 
802.387456  	0.182268 
804.316272  	0.180815 
806.245088  	0.180123 
808.173904  	0.179524 
810.102720  	0.179022 
812.031536  	0.178726 
813.960352  	0.178341 
815.889168  	0.177889 
817.817984  	0.177525 
819.746800  	0.177129 
821.675616  	0.176692 
823.604432  	0.176321 
825.533248  	0.175421 
827.462064  	0.174106 
829.390880  	0.172941 
831.319696  	0.171801 
833.248512  	0.170432 
835.177328  	0.168990 
837.106144  	0.166855 
839.034960  	0.164026 
840.963776  	0.161212 
842.892592  	0.158905 
844.821408  	0.156362 
846.750224  	0.153943 
848.679040  	0.152068 
850.607856  	0.150302 
852.536672  	0.148770 
854.465488  	0.147191 
856.394304  	0.145570 
858.323120  	0.144418 
860.251936  	0.142989 
862.180752  	0.141214 
864.109568  	0.139519 
866.038384  	0.137998 
867.967200  	0.136577 
869.896016  	0.135332 
871.824832  	0.134301 
873.753648  	0.133599 
875.682464  	0.133458 
877.611280  	0.133467 
879.540096  	0.133504 
881.468912  	0.134024 
883.397728  	0.134294 
885.326544  	0.134374 
887.255360  	0.133994 
889.184176  	0.133335 
891.112992  	0.132164 
893.041808  	0.130752 
894.970624  	0.128766 
896.899440  	0.126421 
898.828256  	0.123589 
900.757072  	0.120592 
902.685888  	0.118382 
904.614704  	0.117176 
906.543520  	0.116872 
908.472336  	0.117429 
910.401152  	0.118995 
912.329968  	0.121055 
914.258784  	0.123285 
916.187600  	0.125428 
918.116416  	0.126811 
920.045232  	0.127263 
921.974048  	0.126722 
923.902864  	0.125871 
925.831680  	0.124955 
927.760496  	0.123998 
929.689312  	0.123106 
931.618128  	0.122904 
933.546944  	0.122920 
935.475760  	0.122789 
937.404576  	0.122900 
939.333392  	0.123365 
941.262208  	0.124180 
943.191024  	0.125905 
945.119840  	0.128765 
947.048656  	0.132281 
948.977472  	0.136930 
950.906288  	0.142383 
952.835104  	0.148100 
954.763920  	0.153462 
956.692736  	0.158317 
958.621552  	0.162481 
960.550368  	0.165275 
962.479184  	0.166378 
964.408000  	0.165004 
966.336816  	0.161598 
968.265632  	0.156327 
970.194448  	0.149888 
972.123264  	0.142421 
974.052080  	0.134420 
975.980896  	0.126577 
977.909712  	0.119325 
979.838528  	0.113284 
981.767344  	0.108339 
983.696160  	0.104701 
985.624976  	0.102821 
987.553792  	0.102867 
989.482608  	0.104484 
991.411424  	0.107324 
993.340240  	0.111339 
995.269056  	0.116624 
997.197872  	0.122269 
999.126688  	0.127727 
1001.055504  	0.133259 
1002.984320  	0.138699 
1004.913136  	0.143708 
1006.841952  	0.147992 
1008.770768  	0.151639 
1010.699584  	0.154325 
1012.628400  	0.156231 
1014.557216  	0.157386 
1016.486032  	0.158120 
1018.414848  	0.158503 
1020.343664  	0.159040 
1022.272480  	0.159275 
1024.201296  	0.159023 
1026.130112  	0.158237 
1028.058928  	0.158445 
1029.987744  	0.159857 
1031.916560  	0.161400 
1033.845376  	0.163076 
1035.774192  	0.164755 
1037.703008  	0.167048 
1039.631824  	0.171327 
1041.560640  	0.176583 
1043.489456  	0.183172 
1045.418272  	0.191704 
1047.347088  	0.201776 
1049.275904  	0.212151 
1051.204720  	0.222711 
1053.133536  	0.231579 
1055.062352  	0.238327 
1056.991168  	0.242940 
1058.919984  	0.246081 
1060.848800  	0.247230 
1062.777616  	0.246683 
1064.706432  	0.243947 
1066.635248  	0.240527 
1068.564064  	0.237527 
1070.492880  	0.233907 
1072.421696  	0.229046 
1074.350512  	0.224560 
1076.279328  	0.220999 
1078.208144  	0.218451 
1080.136960  	0.216528 
1082.065776  	0.214976 
1083.994592  	0.213254 
1085.923408  	0.211640 
1087.852224  	0.209342 
1089.781040  	0.206569 
1091.709856  	0.202587 
1093.638672  	0.197267 
1095.567488  	0.190473 
1097.496304  	0.183445 
1099.425120  	0.175756 
1101.353936  	0.167757 
1103.282752  	0.159583 
1105.211568  	0.151400 
1107.140384  	0.143411 
1109.069200  	0.135394 
1110.998016  	0.127746 
1112.926832  	0.120604 
1114.855648  	0.113574 
1116.784464  	0.106766 
1118.713280  	0.100670 
1120.642096  	0.095200 
1122.570912  	0.089884 
1124.499728  	0.084933 
1126.428544  	0.080393 
1128.357360  	0.076029 
1130.286176  	0.071902 
1132.214992  	0.068584 
1134.143808  	0.065908 
1136.072624  	0.063167 
1138.001440  	0.060490 
1139.930256  	0.058068 
1141.859072  	0.055999 
1143.787888  	0.053819 
1145.716704  	0.052014 
1147.645520  	0.050688 
1149.574336  	0.049509 
1151.503152  	0.048596 
1153.431968  	0.048315 
1155.360784  	0.048350 
1157.289600  	0.048732 
1159.218416  	0.049405 
1161.147232  	0.050437 
1163.076048  	0.051530 
1165.004864  	0.052856 
1166.933680  	0.054153 
1168.862496  	0.055893 
1170.791312  	0.057820 
1172.720128  	0.059652 
1174.648944  	0.061310 
1176.577760  	0.063275 
1178.506576  	0.065417 
1180.435392  	0.067280 
1182.364208  	0.069175 
1184.293024  	0.071613 
1186.221840  	0.073891 
1188.150656  	0.076234 
1190.079472  	0.079000 
1192.008288  	0.082445 
1193.937104  	0.086496 
1195.865920  	0.090981 
1197.794736  	0.095646 
1199.723552  	0.100848 
1201.652368  	0.106225 
1203.581184  	0.111789 
1205.510000  	0.117270 
1207.438816  	0.122709 
1209.367632  	0.128148 
1211.296448  	0.133202 
1213.225264  	0.137695 
1215.154080  	0.141571 
1217.082896  	0.144726 
1219.011712  	0.147287 
1220.940528  	0.149833 
1222.869344  	0.151779 
1224.798160  	0.152819 
1226.726976  	0.153576 
1228.655792  	0.154291 
1230.584608  	0.154356 
1232.513424  	0.153991 
1234.442240  	0.152656 
1236.371056  	0.150612 
1238.299872  	0.147823 
1240.228688  	0.143997 
1242.157504  	0.139639 
1244.086320  	0.135062 
1246.015136  	0.129827 
1247.943952  	0.124284 
1249.872768  	0.118653 
1251.801584  	0.113288 
1253.730400  	0.107966 
1255.659216  	0.102834 
1257.588032  	0.097928 
1259.516848  	0.093164 
1261.445664  	0.088700 
1263.374480  	0.084715 
1265.303296  	0.081111 
1267.232112  	0.078155 
1269.160928  	0.075822 
1271.089744  	0.074162 
1273.018560  	0.073297 
1274.947376  	0.072863 
1276.876192  	0.072430 
1278.805008  	0.071709 
1280.733824  	0.070293 
1282.662640  	0.067972 
1284.591456  	0.065036 
1286.520272  	0.062030 
1288.449088  	0.059645 
1290.377904  	0.057801 
1292.306720  	0.056321 
1294.235536  	0.054571 
1296.164352  	0.052185 
1298.093168  	0.049322 
1300.021984  	0.046458 
1301.950800  	0.043906 
1303.879616  	0.041766 
1305.808432  	0.039955 
1307.737248  	0.038468 
1309.666064  	0.037034 
1311.594880  	0.036207 
1313.523696  	0.035766 
1315.452512  	0.035524 
1317.381328  	0.035591 
1319.310144  	0.036053 
1321.238960  	0.036735 
1323.167776  	0.037468 
1325.096592  	0.037903 
1327.025408  	0.038012 
1328.954224  	0.037754 
1330.883040  	0.037258 
1332.811856  	0.036394 
1334.740672  	0.035672 
1336.669488  	0.034940 
1338.598304  	0.034383 
1340.527120  	0.033984 
1342.455936  	0.033689 
1344.384752  	0.033625 
1346.313568  	0.034042 
1348.242384  	0.034876 
1350.171200  	0.036289 
1352.100016  	0.037846 
1354.028832  	0.039328 
1355.957648  	0.040992 
1357.886464  	0.042693 
1359.815280  	0.044036 
1361.744096  	0.045190 
1363.672912  	0.046563 
1365.601728  	0.047488 
1367.530544  	0.047847 
1369.459360  	0.047948 
1371.388176  	0.047469 
1373.316992  	0.046240 
1375.245808  	0.044814 
1377.174624  	0.043669 
1379.103440  	0.042062 
1381.032256  	0.040515 
1382.961072  	0.039200 
1384.889888  	0.038317 
1386.818704  	0.037439 
1388.747520  	0.036746 
1390.676336  	0.035770 
1392.605152  	0.034174 
1394.533968  	0.032848 
1396.462784  	0.033710 
1398.391600  	0.034389 
1400.320416  	0.035049 
1402.249232  	0.035674 
1404.178048  	0.036301 
1406.106864  	0.037369 
1408.035680  	0.038919 
1409.964496  	0.040444 
1411.893312  	0.042209 
1413.822128  	0.043837 
1415.750944  	0.045190 
1417.679760  	0.045424 
1419.608576  	0.045188 
1421.537392  	0.045397 
1423.466208  	0.044844 
1425.395024  	0.043826 
1427.323840  	0.042720 
1429.252656  	0.041079 
1431.181472  	0.040178 
1433.110288  	0.039976 
1435.039104  	0.039591 
1436.967920  	0.039433 
1438.896736  	0.040559 
1440.825552  	0.041216 
1442.754368  	0.041618 
1444.683184  	0.041596 
1446.612000  	0.041304 
1448.540816  	0.041261 
1450.469632  	0.041735 
1452.398448  	0.041802 
1454.327264  	0.041636 
1456.256080  	0.040532 
1458.184896  	0.040519 
1460.113712  	0.042144 
1462.042528  	0.043135 
1463.971344  	0.042962 
1465.900160  	0.044360 
1467.828976  	0.046625 
1469.757792  	0.048399 
1471.686608  	0.049644 
1473.615424  	0.053289 
1475.544240  	0.056784 
1477.473056  	0.059354 
1479.401872  	0.060607 
1481.330688  	0.061094 
1483.259504  	0.061255 
1485.188320  	0.060557 
1487.117136  	0.058555 
1489.045952  	0.056509 
1490.974768  	0.054505 
1492.903584  	0.052909 
1494.832400  	0.050088 
1496.761216  	0.046175 
1498.690032  	0.043403 
1500.618848  	0.041954 
1502.547664  	0.040314 
1504.476480  	0.037526 
1506.405296  	0.033475 
1508.334112  	0.033884 
1510.262928  	0.034711 
1512.191744  	0.034208 
1514.120560  	0.033393 
1516.049376  	0.032499 
1517.978192  	0.032541 
1519.907008  	0.033032 
1521.835824  	0.033899 
1523.764640  	0.036951 
1525.693456  	0.039408 
1527.622272  	0.041493 
1529.551088  	0.042974 
1531.479904  	0.043146 
1533.408720  	0.041754 
1535.337536  	0.041459 
1537.266352  	0.039743 
1539.195168  	0.034847 
1541.123984  	0.032322 
1543.052800  	0.033670 
1544.981616  	0.033980 
1546.910432  	0.033971 
1548.839248  	0.033315 
1550.768064  	0.033169 
1552.696880  	0.032958 
1554.625696  	0.032846 
1556.554512  	0.032049 
1558.483328  	0.030104 
1560.412144  	0.034952 
1562.340960  	0.039190 
1564.269776  	0.041174 
1566.198592  	0.044139 
1568.127408  	0.046190 
1570.056224  	0.049664 
1571.985040  	0.053925 
1573.913856  	0.055812 
1575.842672  	0.055984 
1577.771488  	0.058198 
1579.700304  	0.059264 
1581.629120  	0.059389 
1583.557936  	0.059645 
1585.486752  	0.060876 
1587.415568  	0.062962 
1589.344384  	0.066127 
1591.273200  	0.069764 
1593.202016  	0.074070 
1595.130832  	0.078293 
1597.059648  	0.082555 
1598.988464  	0.085784 
1600.917280  	0.088242 
1602.846096  	0.089619 
1604.774912  	0.090473 
1606.703728  	0.090174 
1608.632544  	0.089659 
1610.561360  	0.089089 
1612.490176  	0.088850 
1614.418992  	0.088066 
1616.347808  	0.087968 
1618.276624  	0.090767 
1620.205440  	0.094296 
1622.134256  	0.096797 
1624.063072  	0.101909 
1625.991888  	0.107284 
1627.920704  	0.112784 
1629.849520  	0.119284 
1631.778336  	0.124891 
1633.707152  	0.128123 
1635.635968  	0.132423 
1637.564784  	0.139460 
1639.493600  	0.144271 
1641.422416  	0.147517 
1643.351232  	0.149473 
1645.280048  	0.149108 
1647.208864  	0.149240 
1649.137680  	0.150896 
1651.066496  	0.150073 
1652.995312  	0.145910 
1654.924128  	0.148019 
1656.852944  	0.148718 
1658.781760  	0.147821 
1660.710576  	0.145973 
1662.639392  	0.143993 
1664.568208  	0.143398 
1666.497024  	0.142523 
1668.425840  	0.139935 
1670.354656  	0.138331 
1672.283472  	0.138291 
1674.212288  	0.137638 
1676.141104  	0.137499 
1678.069920  	0.138385 
1679.998736  	0.138531 
1681.927552  	0.137623 
1683.856368  	0.135411 
1685.785184  	0.137952 
1687.714000  	0.138732 
1689.642816  	0.137808 
1691.571632  	0.136530 
1693.500448  	0.134631 
1695.429264  	0.130656 
1697.358080  	0.127516 
1699.286896  	0.124081 
1701.215712  	0.120328 
1703.144528  	0.118409 
1705.073344  	0.114182 
1707.002160  	0.110143 
1708.930976  	0.106694 
1710.859792  	0.102282 
1712.788608  	0.097239 
1714.717424  	0.091297 
1716.646240  	0.084548 
1718.575056  	0.078516 
1720.503872  	0.074565 
1722.432688  	0.070081 
1724.361504  	0.064492 
1726.290320  	0.059605 
1728.219136  	0.054583 
1730.147952  	0.049669 
1732.076768  	0.045000 
1734.005584  	0.039458 
1735.934400  	0.035812 
1737.863216  	0.033566 
1739.792032  	0.029414 
1741.720848  	0.026925 
1743.649664  	0.024529 
1745.578480  	0.022232 
1747.507296  	0.019526 
1749.436112  	0.017904 
1751.364928  	0.017002 
1753.293744  	0.016644 
1755.222560  	0.015481 
1757.151376  	0.014607 
1759.080192  	0.013999 
1761.009008  	0.013293 
1762.937824  	0.012699 
1764.866640  	0.012866 
1766.795456  	0.012235 
1768.724272  	0.011710 
1770.653088  	0.010241 
1772.581904  	0.009428 
1774.510720  	0.010345 
1776.439536  	0.011043 
1778.368352  	0.010891 
1780.297168  	0.010583 
1782.225984  	0.010381 
1784.154800  	0.010502 
1786.083616  	0.010454 
1788.012432  	0.010273 
1789.941248  	0.009439 
1791.870064  	0.008877 
1793.798880  	0.008964 
1795.727696  	0.009597 
1797.656512  	0.009407 
1799.585328  	0.008966 
1801.514144  	0.008822 
1803.442960  	0.008993 
1805.371776  	0.008817 
1807.300592  	0.008872 
1809.229408  	0.008302 
1811.158224  	0.008166 
1813.087040  	0.008236 
1815.015856  	0.008370 
1816.944672  	0.008223 
1818.873488  	0.008531 
1820.802304  	0.008680 
1822.731120  	0.008694 
1824.659936  	0.008138 
1826.588752  	0.008193 
1828.517568  	0.007661 
1830.446384  	0.007991 
1832.375200  	0.008623 
1834.304016  	0.008533 
1836.232832  	0.008170 
1838.161648  	0.008486 
1840.090464  	0.008551 
1842.019280  	0.007983 
1843.948096  	0.006951 
1845.876912  	0.007784 
1847.805728  	0.008312 
1849.734544  	0.008441 
1851.663360  	0.008294 
1853.592176  	0.008518 
1855.520992  	0.008490 
1857.449808  	0.008717 
1859.378624  	0.008568 
1861.307440  	0.008434 
1863.236256  	0.008197 
1865.165072  	0.008149 
1867.093888  	0.007510 
1869.022704  	0.007668 
1870.951520  	0.008061 
1872.880336  	0.008419 
1874.809152  	0.008198 
1876.737968  	0.008210 
1878.666784  	0.007855 
1880.595600  	0.007967 
1882.524416  	0.007977 
1884.453232  	0.007948 
1886.382048  	0.007853 
1888.310864  	0.007885 
1890.239680  	0.007856 
1892.168496  	0.008139 
1894.097312  	0.007860 
1896.026128  	0.008151 
1897.954944  	0.008079 
1899.883760  	0.008160 
1901.812576  	0.007840 
1903.741392  	0.007885 
1905.670208  	0.007784 
1907.599024  	0.007678 
1909.527840  	0.007424 
1911.456656  	0.007791 
1913.385472  	0.007849 
1915.314288  	0.008290 
1917.243104  	0.008041 
1919.171920  	0.007788 
1921.100736  	0.007961 
1923.029552  	0.008566 
1924.958368  	0.007936 
1926.887184  	0.007959 
1928.816000  	0.007704 
1930.744816  	0.007257 
1932.673632  	0.006835 
1934.602448  	0.007633 
1936.531264  	0.007975 
1938.460080  	0.007881 
1940.388896  	0.007346 
1942.317712  	0.007680 
1944.246528  	0.008171 
1946.175344  	0.008464 
1948.104160  	0.007706 
1950.032976  	0.007598 
1951.961792  	0.008205 
1953.890608  	0.008838 
1955.819424  	0.007498 
1957.748240  	0.007785 
1959.677056  	0.008585 
1961.605872  	0.008120 
1963.534688  	0.007250 
1965.463504  	0.007799 
1967.392320  	0.007090 
1969.321136  	0.007147 
1971.249952  	0.008486 
1973.178768  	0.009973 
1975.107584  	0.008170 
1977.036400  	0.008056 
1978.965216  	0.010134 
1980.894032  	0.010371 
1982.822848  	0.008440 
1984.751664  	0.008466 
1986.680480  	0.008628 
1988.609296  	0.008835 
1990.538112  	0.008642 
1992.466928  	0.009043 
1994.395744  	0.008615 
1996.324560  	0.009338 
1998.253376  	0.009417 
2000.182192  	0.008285 
2002.111008  	0.007142 
2004.039824  	0.008101 
2005.968640  	0.007881 
2007.897456  	0.008708 
2009.826272  	0.008228 
2011.755088  	0.006966 
2013.683904  	0.007550 
2015.612720  	0.009066 
2017.541536  	0.008297 
2019.470352  	0.007596 
2021.399168  	0.007203 
2023.327984  	0.008846 
2025.256800  	0.008573 
2027.185616  	0.007776 
2029.114432  	0.007981 
2031.043248  	0.009712 
2032.972064  	0.009862 
2034.900880  	0.009493 
2036.829696  	0.008935 
2038.758512  	0.008370 
2040.687328  	0.007786 
2042.616144  	0.007492 
2044.544960  	0.007565 
2046.473776  	0.008232 
2048.402592  	0.008351 
2050.331408  	0.009567 
2052.260224  	0.009292 
2054.189040  	0.008921 
2056.117856  	0.008269 
2058.046672  	0.008131 
2059.975488  	0.007806 
2061.904304  	0.007926 
2063.833120  	0.009005 
2065.761936  	0.009486 
2067.690752  	0.008571 
2069.619568  	0.008086 
2071.548384  	0.007441 
2073.477200  	0.007461 
2075.406016  	0.008024 
2077.334832  	0.008296 
2079.263648  	0.007780 
2081.192464  	0.008232 
2083.121280  	0.009094 
2085.050096  	0.009254 
2086.978912  	0.008956 
2088.907728  	0.008903 
2090.836544  	0.007908 
2092.765360  	0.007499 
2094.694176  	0.007702 
2096.622992  	0.007844 
2098.551808  	0.007533 
2100.480624  	0.007686 
2102.409440  	0.007468 
2104.338256  	0.007864 
2106.267072  	0.008074 
2108.195888  	0.008136 
2110.124704  	0.008607 
2112.053520  	0.008958 
2113.982336  	0.008391 
2115.911152  	0.008565 
2117.839968  	0.008113 
2119.768784  	0.007277 
2121.697600  	0.007033 
2123.626416  	0.006938 
2125.555232  	0.007030 
2127.484048  	0.007448 
2129.412864  	0.007069 
2131.341680  	0.006383 
2133.270496  	0.006864 
2135.199312  	0.007305 
2137.128128  	0.007280 
2139.056944  	0.007766 
2140.985760  	0.006783 
2142.914576  	0.007256 
2144.843392  	0.007383 
2146.772208  	0.007520 
2148.701024  	0.007620 
2150.629840  	0.008373 
2152.558656  	0.007905 
2154.487472  	0.007137 
2156.416288  	0.005709 
2158.345104  	0.006456 
2160.273920  	0.008277 
2162.202736  	0.008711 
2164.131552  	0.008194 
2166.060368  	0.009862 
2167.989184  	0.009398 
2169.918000  	0.008258 
2171.846816  	0.007549 
2173.775632  	0.007281 
2175.704448  	0.007805 
2177.633264  	0.008826 
2179.562080  	0.008368 
2181.490896  	0.007845 
2183.419712  	0.008238 
2185.348528  	0.009001 
2187.277344  	0.008093 
2189.206160  	0.008390 
2191.134976  	0.009038 
2193.063792  	0.009893 
2194.992608  	0.009584 
2196.921424  	0.009039 
2198.850240  	0.008786 
2200.779056  	0.008737 
2202.707872  	0.008898 
2204.636688  	0.009012 
2206.565504  	0.008742 
2208.494320  	0.009249 
2210.423136  	0.008267 
2212.351952  	0.008194 
2214.280768  	0.008935 
2216.209584  	0.008808 
2218.138400  	0.008332 
2220.067216  	0.008510 
2221.996032  	0.008486 
2223.924848  	0.008444 
2225.853664  	0.008740 
2227.782480  	0.009173 
2229.711296  	0.009149 
2231.640112  	0.008807 
2233.568928  	0.008256 
2235.497744  	0.008415 
2237.426560  	0.008234 
2239.355376  	0.008553 
2241.284192  	0.008352 
2243.213008  	0.008001 
2245.141824  	0.008073 
2247.070640  	0.007824 
2248.999456  	0.007542 
2250.928272  	0.008062 
2252.857088  	0.008447 
2254.785904  	0.008680 
2256.714720  	0.008830 
2258.643536  	0.008951 
2260.572352  	0.008504 
2262.501168  	0.008465 
2264.429984  	0.008509 
2266.358800  	0.009080 
2268.287616  	0.008986 
2270.216432  	0.008734 
2272.145248  	0.008591 
2274.074064  	0.008719 
2276.002880  	0.008725 
2277.931696  	0.009094 
2279.860512  	0.009605 
2281.789328  	0.009750 
2283.718144  	0.009693 
2285.646960  	0.009934 
2287.575776  	0.009836 
2289.504592  	0.009396 
2291.433408  	0.009073 
2293.362224  	0.009072 
2295.291040  	0.009116 
2297.219856  	0.009296 
2299.148672  	0.009255 
2301.077488  	0.009208 
2303.006304  	0.009353 
2304.935120  	0.009246 
2306.863936  	0.008837 
2308.792752  	0.008802 
2310.721568  	0.008845 
2312.650384  	0.008620 
2314.579200  	0.008150 
2316.508016  	0.007826 
2318.436832  	0.007266 
2320.365648  	0.006871 
2322.294464  	0.006548 
2324.223280  	0.005753 
2326.152096  	0.004364 
2328.080912  	0.003117 
2330.009728  	0.002132 
2331.938544  	0.001673 
2333.867360  	0.000956 
2335.796176  	0.000193 
2337.724992  	-0.000202 
2339.653808  	-0.000252 
2341.582624  	-0.000110 
2343.511440  	0.001014 
2345.440256  	0.002415 
2347.369072  	0.004507 
2349.297888  	0.005024 
2351.226704  	0.003338 
2353.155520  	0.001181 
2355.084336  	-0.000974 
2357.013152  	-0.002876 
2358.941968  	-0.003532 
2360.870784  	-0.003779 
2362.799600  	-0.003126 
2364.728416  	-0.002321 
2366.657232  	-0.001173 
2368.586048  	-0.000114 
2370.514864  	0.001726 
2372.443680  	0.003578 
2374.372496  	0.005552 
2376.301312  	0.007141 
2378.230128  	0.008113 
2380.158944  	0.008543 
2382.087760  	0.008975 
2384.016576  	0.009246 
2385.945392  	0.009437 
2387.874208  	0.009266 
2389.803024  	0.009103 
2391.731840  	0.008982 
2393.660656  	0.009035 
2395.589472  	0.009214 
2397.518288  	0.009325 
2399.447104  	0.009222 
2401.375920  	0.009066 
2403.304736  	0.009118 
2405.233552  	0.009353 
2407.162368  	0.009429 
2409.091184  	0.009314 
2411.020000  	0.009257 
2412.948816  	0.009351 
2414.877632  	0.009410 
2416.806448  	0.009424 
2418.735264  	0.009586 
2420.664080  	0.009740 
2422.592896  	0.009566 
2424.521712  	0.009371 
2426.450528  	0.009361 
2428.379344  	0.009326 
2430.308160  	0.009316 
2432.236976  	0.009620 
2434.165792  	0.009953 
2436.094608  	0.010282 
2438.023424  	0.010339 
2439.952240  	0.010440 
2441.881056  	0.010457 
2443.809872  	0.010484 
2445.738688  	0.010516 
2447.667504  	0.010420 
2449.596320  	0.010437 
2451.525136  	0.010582 
2453.453952  	0.010591 
2455.382768  	0.010853 
2457.311584  	0.011068 
2459.240400  	0.010867 
2461.169216  	0.010661 
2463.098032  	0.010662 
2465.026848  	0.010668 
2466.955664  	0.010730 
2468.884480  	0.010704 
2470.813296  	0.010775 
2472.742112  	0.010634 
2474.670928  	0.010514 
2476.599744  	0.010558 
2478.528560  	0.010749 
2480.457376  	0.011118 
2482.386192  	0.011122 
2484.315008  	0.010988 
2486.243824  	0.011205 
2488.172640  	0.011214 
2490.101456  	0.011186 
2492.030272  	0.011350 
2493.959088  	0.011378 
2495.887904  	0.011264 
2497.816720  	0.011405 
2499.745536  	0.011446 
2501.674352  	0.011519 
2503.603168  	0.011515 
2505.531984  	0.011607 
2507.460800  	0.011556 
2509.389616  	0.011442 
2511.318432  	0.011158 
2513.247248  	0.011269 
2515.176064  	0.011494 
2517.104880  	0.011870 
2519.033696  	0.012055 
2520.962512  	0.012073 
2522.891328  	0.012152 
2524.820144  	0.012087 
2526.748960  	0.011973 
2528.677776  	0.012169 
2530.606592  	0.012255 
2532.535408  	0.012232 
2534.464224  	0.012367 
2536.393040  	0.012402 
2538.321856  	0.012329 
2540.250672  	0.012378 
2542.179488  	0.012305 
2544.108304  	0.012370 
2546.037120  	0.012486 
2547.965936  	0.012941 
2549.894752  	0.013097 
2551.823568  	0.013063 
2553.752384  	0.013138 
2555.681200  	0.013264 
2557.610016  	0.013292 
2559.538832  	0.013260 
2561.467648  	0.013244 
2563.396464  	0.013465 
2565.325280  	0.013736 
2567.254096  	0.013766 
2569.182912  	0.013616 
2571.111728  	0.013493 
2573.040544  	0.013296 
2574.969360  	0.013160 
2576.898176  	0.013344 
2578.826992  	0.013720 
2580.755808  	0.013776 
2582.684624  	0.013664 
2584.613440  	0.013655 
2586.542256  	0.013932 
2588.471072  	0.014097 
2590.399888  	0.014109 
2592.328704  	0.014165 
2594.257520  	0.014339 
2596.186336  	0.014575 
2598.115152  	0.014626 
2600.043968  	0.014524 
2601.972784  	0.014573 
2603.901600  	0.014880 
2605.830416  	0.015134 
2607.759232  	0.014977 
2609.688048  	0.015164 
2611.616864  	0.015356 
2613.545680  	0.015388 
2615.474496  	0.015339 
2617.403312  	0.015383 
2619.332128  	0.015669 
2621.260944  	0.015711 
2623.189760  	0.015576 
2625.118576  	0.015752 
2627.047392  	0.015905 
2628.976208  	0.016153 
2630.905024  	0.016264 
2632.833840  	0.016430 
2634.762656  	0.016519 
2636.691472  	0.016453 
2638.620288  	0.016496 
2640.549104  	0.016604 
2642.477920  	0.016732 
2644.406736  	0.016784 
2646.335552  	0.016987 
2648.264368  	0.017174 
2650.193184  	0.017142 
2652.122000  	0.017250 
2654.050816  	0.017458 
2655.979632  	0.017487 
2657.908448  	0.017561 
2659.837264  	0.017674 
2661.766080  	0.017611 
2663.694896  	0.017590 
2665.623712  	0.017569 
2667.552528  	0.017546 
2669.481344  	0.017718 
2671.410160  	0.017917 
2673.338976  	0.018025 
2675.267792  	0.018134 
2677.196608  	0.018286 
2679.125424  	0.018410 
2681.054240  	0.018406 
2682.983056  	0.018423 
2684.911872  	0.018612 
2686.840688  	0.018730 
2688.769504  	0.018786 
2690.698320  	0.018775 
2692.627136  	0.018848 
2694.555952  	0.018974 
2696.484768  	0.018994 
2698.413584  	0.019049 
2700.342400  	0.019050 
2702.271216  	0.019145 
2704.200032  	0.019394 
2706.128848  	0.019591 
2708.057664  	0.019698 
2709.986480  	0.019762 
2711.915296  	0.019818 
2713.844112  	0.019876 
2715.772928  	0.020040 
2717.701744  	0.020150 
2719.630560  	0.020125 
2721.559376  	0.020217 
2723.488192  	0.020379 
2725.417008  	0.020607 
2727.345824  	0.020721 
2729.274640  	0.020700 
2731.203456  	0.020742 
2733.132272  	0.020914 
2735.061088  	0.021062 
2736.989904  	0.021159 
2738.918720  	0.021172 
2740.847536  	0.021167 
2742.776352  	0.021292 
2744.705168  	0.021373 
2746.633984  	0.021362 
2748.562800  	0.021471 
2750.491616  	0.021585 
2752.420432  	0.021583 
2754.349248  	0.021645 
2756.278064  	0.021702 
2758.206880  	0.021702 
2760.135696  	0.021900 
2762.064512  	0.021952 
2763.993328  	0.021896 
2765.922144  	0.021916 
2767.850960  	0.022005 
2769.779776  	0.022127 
2771.708592  	0.022196 
2773.637408  	0.022221 
2775.566224  	0.022250 
2777.495040  	0.022250 
2779.423856  	0.022322 
2781.352672  	0.022453 
2783.281488  	0.022547 
2785.210304  	0.022543 
2787.139120  	0.022605 
2789.067936  	0.022769 
2790.996752  	0.022908 
2792.925568  	0.022986 
2794.854384  	0.023081 
2796.783200  	0.023078 
2798.712016  	0.023007 
2800.640832  	0.023054 
2802.569648  	0.023249 
2804.498464  	0.023346 
2806.427280  	0.023340 
2808.356096  	0.023402 
2810.284912  	0.023548 
2812.213728  	0.023530 
2814.142544  	0.023617 
2816.071360  	0.023756 
2818.000176  	0.023697 
2819.928992  	0.023644 
2821.857808  	0.023675 
2823.786624  	0.023628 
2825.715440  	0.023603 
2827.644256  	0.023584 
2829.573072  	0.023667 
2831.501888  	0.023682 
2833.430704  	0.023639 
2835.359520  	0.023573 
2837.288336  	0.023501 
2839.217152  	0.023499 
2841.145968  	0.023436 
2843.074784  	0.023404 
2845.003600  	0.023496 
2846.932416  	0.023744 
2848.861232  	0.023993 
2850.790048  	0.023970 
2852.718864  	0.023576 
2854.647680  	0.023206 
2856.576496  	0.023070 
2858.505312  	0.022850 
2860.434128  	0.022585 
2862.362944  	0.022429 
2864.291760  	0.022209 
2866.220576  	0.022091 
2868.149392  	0.022235 
2870.078208  	0.022465 
2872.007024  	0.022602 
2873.935840  	0.022824 
2875.864656  	0.023162 
2877.793472  	0.023505 
2879.722288  	0.023639 
2881.651104  	0.023611 
2883.579920  	0.023616 
2885.508736  	0.023816 
2887.437552  	0.024105 
2889.366368  	0.024237 
2891.295184  	0.024211 
2893.224000  	0.024160 
2895.152816  	0.024325 
2897.081632  	0.024221 
2899.010448  	0.023854 
2900.939264  	0.023634 
2902.868080  	0.024143 
2904.796896  	0.024809 
2906.725712  	0.025115 
2908.654528  	0.025292 
2910.583344  	0.025625 
2912.512160  	0.026317 
2914.440976  	0.027258 
2916.369792  	0.027836 
2918.298608  	0.028232 
2920.227424  	0.028624 
2922.156240  	0.028946 
2924.085056  	0.029282 
2926.013872  	0.029755 
2927.942688  	0.030270 
2929.871504  	0.030755 
2931.800320  	0.031123 
2933.729136  	0.031301 
2935.657952  	0.031459 
2937.586768  	0.031679 
2939.515584  	0.031821 
2941.444400  	0.031958 
2943.373216  	0.032225 
2945.302032  	0.032379 
2947.230848  	0.032454 
2949.159664  	0.032421 
2951.088480  	0.032174 
2953.017296  	0.032071 
2954.946112  	0.031866 
2956.874928  	0.031451 
2958.803744  	0.030982 
2960.732560  	0.030688 
2962.661376  	0.030452 
2964.590192  	0.030036 
2966.519008  	0.029573 
2968.447824  	0.029092 
2970.376640  	0.028825 
2972.305456  	0.028488 
2974.234272  	0.028252 
2976.163088  	0.028201 
2978.091904  	0.028104 
2980.020720  	0.027962 
2981.949536  	0.027809 
2983.878352  	0.027599 
2985.807168  	0.027327 
2987.735984  	0.027117 
2989.664800  	0.027201 
2991.593616  	0.028029 
2993.522432  	0.028544 
2995.451248  	0.028639 
2997.380064  	0.028989 
2999.308880  	0.029325 
3001.237696  	0.029696 
3003.166512  	0.030114 
3005.095328  	0.030505 
3007.024144  	0.031089 
3008.952960  	0.031678 
3010.881776  	0.032244 
3012.810592  	0.032658 
3014.739408  	0.033005 
3016.668224  	0.033557 
3018.597040  	0.033920 
3020.525856  	0.034043 
3022.454672  	0.034413 
3024.383488  	0.034937 
3026.312304  	0.035269 
3028.241120  	0.035490 
3030.169936  	0.035691 
3032.098752  	0.036195 
3034.027568  	0.036395 
3035.956384  	0.036492 
3037.885200  	0.036821 
3039.814016  	0.037174 
3041.742832  	0.037479 
3043.671648  	0.037666 
3045.600464  	0.037851 
3047.529280  	0.038117 
3049.458096  	0.038276 
3051.386912  	0.038337 
3053.315728  	0.038634 
3055.244544  	0.039214 
3057.173360  	0.039696 
3059.102176  	0.039965 
3061.030992  	0.040126 
3062.959808  	0.040329 
3064.888624  	0.040727 
3066.817440  	0.041278 
3068.746256  	0.041529 
3070.675072  	0.041537 
3072.603888  	0.041943 
3074.532704  	0.042468 
3076.461520  	0.042802 
3078.390336  	0.042887 
3080.319152  	0.043181 
3082.247968  	0.043698 
3084.176784  	0.044107 
3086.105600  	0.044329 
3088.034416  	0.044608 
3089.963232  	0.045007 
3091.892048  	0.045263 
3093.820864  	0.045423 
3095.749680  	0.045738 
3097.678496  	0.045972 
3099.607312  	0.046186 
3101.536128  	0.046533 
3103.464944  	0.046997 
3105.393760  	0.047293 
3107.322576  	0.047575 
3109.251392  	0.047850 
3111.180208  	0.048086 
3113.109024  	0.048270 
3115.037840  	0.048342 
3116.966656  	0.048459 
3118.895472  	0.048692 
3120.824288  	0.048991 
3122.753104  	0.049266 
3124.681920  	0.049484 
3126.610736  	0.049643 
3128.539552  	0.050006 
3130.468368  	0.050201 
3132.397184  	0.050239 
3134.326000  	0.050362 
3136.254816  	0.050550 
3138.183632  	0.050833 
3140.112448  	0.050940 
3142.041264  	0.050930 
3143.970080  	0.051169 
3145.898896  	0.051486 
3147.827712  	0.051805 
3149.756528  	0.052044 
3151.685344  	0.052402 
3153.614160  	0.052626 
3155.542976  	0.052730 
3157.471792  	0.052894 
3159.400608  	0.053409 
3161.329424  	0.053910 
3163.258240  	0.054290 
3165.187056  	0.054483 
3167.115872  	0.054524 
3169.044688  	0.054560 
3170.973504  	0.054581 
3172.902320  	0.054626 
3174.831136  	0.054758 
3176.759952  	0.054809 
3178.688768  	0.055015 
3180.617584  	0.055281 
3182.546400  	0.055212 
3184.475216  	0.055281 
3186.404032  	0.055513 
3188.332848  	0.055610 
3190.261664  	0.055807 
3192.190480  	0.055809 
3194.119296  	0.055491 
3196.048112  	0.055490 
3197.976928  	0.055746 
3199.905744  	0.055730 
3201.834560  	0.055677 
3203.763376  	0.055813 
3205.692192  	0.055897 
3207.621008  	0.055762 
3209.549824  	0.055553 
3211.478640  	0.055487 
3213.407456  	0.055246 
3215.336272  	0.055139 
3217.265088  	0.055052 
3219.193904  	0.054836 
3221.122720  	0.054557 
3223.051536  	0.054413 
3224.980352  	0.054334 
3226.909168  	0.054185 
3228.837984  	0.053936 
3230.766800  	0.053783 
3232.695616  	0.053804 
3234.624432  	0.053674 
3236.553248  	0.053556 
3238.482064  	0.053590 
3240.410880  	0.053594 
3242.339696  	0.053496 
3244.268512  	0.053327 
3246.197328  	0.053292 
3248.126144  	0.053363 
3250.054960  	0.053550 
3251.983776  	0.053539 
3253.912592  	0.053439 
3255.841408  	0.053445 
3257.770224  	0.053615 
3259.699040  	0.053792 
3261.627856  	0.053675 
3263.556672  	0.053682 
3265.485488  	0.053716 
3267.414304  	0.053918 
3269.343120  	0.054103 
3271.271936  	0.054293 
3273.200752  	0.054491 
3275.129568  	0.054518 
3277.058384  	0.054577 
3278.987200  	0.054719 
3280.916016  	0.054876 
3282.844832  	0.054782 
3284.773648  	0.054778 
3286.702464  	0.055005 
3288.631280  	0.055246 
3290.560096  	0.055258 
3292.488912  	0.055493 
3294.417728  	0.055566 
3296.346544  	0.055592 
3298.275360  	0.055782 
3300.204176  	0.056112 
3302.132992  	0.056257 
3304.061808  	0.056369 
3305.990624  	0.056636 
3307.919440  	0.056744 
3309.848256  	0.056823 
3311.777072  	0.056813 
3313.705888  	0.056908 
3315.634704  	0.057315 
3317.563520  	0.057659 
3319.492336  	0.057835 
3321.421152  	0.058030 
3323.349968  	0.058090 
3325.278784  	0.058212 
3327.207600  	0.058290 
3329.136416  	0.058238 
3331.065232  	0.058295 
3332.994048  	0.058309 
3334.922864  	0.058263 
3336.851680  	0.058142 
3338.780496  	0.058056 
3340.709312  	0.058053 
3342.638128  	0.058088 
3344.566944  	0.057994 
3346.495760  	0.057813 
3348.424576  	0.057632 
3350.353392  	0.057363 
3352.282208  	0.057102 
3354.211024  	0.057100 
3356.139840  	0.057045 
3358.068656  	0.056741 
3359.997472  	0.056399 
3361.926288  	0.056115 
3363.855104  	0.055931 
3365.783920  	0.055932 
3367.712736  	0.055871 
3369.641552  	0.055338 
3371.570368  	0.054912 
3373.499184  	0.054725 
3375.428000  	0.054473 
3377.356816  	0.054215 
3379.285632  	0.053937 
3381.214448  	0.053863 
3383.143264  	0.053667 
3385.072080  	0.053598 
3387.000896  	0.053440 
3388.929712  	0.053132 
3390.858528  	0.052740 
3392.787344  	0.052369 
3394.716160  	0.052009 
3396.644976  	0.051680 
3398.573792  	0.051384 
3400.502608  	0.051137 
3402.431424  	0.050846 
3404.360240  	0.050486 
3406.289056  	0.050215 
3408.217872  	0.049880 
3410.146688  	0.049457 
3412.075504  	0.049503 
3414.004320  	0.049506 
3415.933136  	0.049053 
3417.861952  	0.048556 
3419.790768  	0.048393 
3421.719584  	0.048260 
3423.648400  	0.047884 
3425.577216  	0.047615 
3427.506032  	0.047457 
3429.434848  	0.047054 
3431.363664  	0.046722 
3433.292480  	0.046489 
3435.221296  	0.046210 
3437.150112  	0.045853 
3439.078928  	0.045687 
3441.007744  	0.045474 
3442.936560  	0.045206 
3444.865376  	0.044691 
3446.794192  	0.043877 
3448.723008  	0.043795 
3450.651824  	0.043628 
3452.580640  	0.043175 
3454.509456  	0.042795 
3456.438272  	0.042589 
3458.367088  	0.042388 
3460.295904  	0.042053 
3462.224720  	0.041505 
3464.153536  	0.040916 
3466.082352  	0.040647 
3468.011168  	0.040397 
3469.939984  	0.040026 
3471.868800  	0.039593 
3473.797616  	0.039152 
3475.726432  	0.038699 
3477.655248  	0.038306 
3479.584064  	0.037995 
3481.512880  	0.037645 
3483.441696  	0.037204 
3485.370512  	0.036693 
3487.299328  	0.036256 
3489.228144  	0.035890 
3491.156960  	0.035343 
3493.085776  	0.035087 
3495.014592  	0.034882 
3496.943408  	0.034499 
3498.872224  	0.033983 
3500.801040  	0.033600 
3502.729856  	0.032987 
3504.658672  	0.032461 
3506.587488  	0.032146 
3508.516304  	0.031772 
3510.445120  	0.031598 
3512.373936  	0.031600 
3514.302752  	0.031331 
3516.231568  	0.030948 
3518.160384  	0.030432 
3520.089200  	0.030157 
3522.018016  	0.030056 
3523.946832  	0.029844 
3525.875648  	0.029278 
3527.804464  	0.028691 
3529.733280  	0.028627 
3531.662096  	0.028455 
3533.590912  	0.028034 
3535.519728  	0.027901 
3537.448544  	0.027832 
3539.377360  	0.027482 
3541.306176  	0.026952 
3543.234992  	0.026432 
3545.163808  	0.026243 
3547.092624  	0.025728 
3549.021440  	0.025320 
3550.950256  	0.025128 
3552.879072  	0.025020 
3554.807888  	0.025019 
3556.736704  	0.024694 
3558.665520  	0.024309 
3560.594336  	0.024139 
3562.523152  	0.023796 
3564.451968  	0.022967 
3566.380784  	0.022101 
3568.309600  	0.022339 
3570.238416  	0.022547 
3572.167232  	0.022016 
3574.096048  	0.021614 
3576.024864  	0.021244 
3577.953680  	0.020748 
3579.882496  	0.020503 
3581.811312  	0.020416 
3583.740128  	0.019936 
3585.668944  	0.019013 
3587.597760  	0.018516 
3589.526576  	0.018655 
3591.455392  	0.018059 
3593.384208  	0.017501 
3595.313024  	0.017012 
3597.241840  	0.016544 
3599.170656  	0.015979 
3601.099472  	0.015878 
3603.028288  	0.015888 
3604.957104  	0.015225 
3606.885920  	0.014218 
3608.814736  	0.014018 
3610.743552  	0.013680 
3612.672368  	0.012686 
3614.601184  	0.012308 
3616.530000  	0.011683 
3618.458816  	0.010752 
3620.387632  	0.011119 
3622.316448  	0.011499 
3624.245264  	0.011329 
3626.174080  	0.010136 
3628.102896  	0.008141 
3630.031712  	0.008520 
3631.960528  	0.009181 
3633.889344  	0.008561 
3635.818160  	0.008270 
3637.746976  	0.008026 
3639.675792  	0.007951 
3641.604608  	0.007659 
3643.533424  	0.006997 
3645.462240  	0.005639 
3647.391056  	0.003538 
3649.319872  	0.002114 
3651.248688  	0.003614 
3653.177504  	0.004667 
3655.106320  	0.003825 
3657.035136  	0.003560 
3658.963952  	0.003813 
3660.892768  	0.003499 
3662.821584  	0.003209 
3664.750400  	0.002930 
3666.679216  	0.002097 
3668.608032  	0.000379 
3670.536848  	-0.000002 
3672.465664  	0.000891 
3674.394480  	-0.001047 
3676.323296  	-0.000916 
3678.252112  	0.001073 
3680.180928  	0.001511 
3682.109744  	0.001861 
3684.038560  	0.001840 
3685.967376  	0.000940 
3687.896192  	-0.000885 
3689.825008  	-0.001040 
3691.753824  	0.000256 
3693.682640  	0.001245 
3695.611456  	0.001253 
3697.540272  	0.001301 
3699.469088  	0.001088 
3701.397904  	0.000791 
3703.326720  	0.001395 
3705.255536  	0.001867 
3707.184352  	0.001229 
3709.113168  	0.000158 
3711.041984  	-0.000317 
3712.970800  	0.000727 
3714.899616  	0.002082 
3716.828432  	0.002229 
3718.757248  	0.001645 
3720.686064  	0.001030 
3722.614880  	0.001074 
3724.543696  	0.001551 
3726.472512  	0.001795 
3728.401328  	0.001722 
3730.330144  	0.000413 
3732.258960  	-0.000848 
3734.187776  	-0.000537 
3736.116592  	0.000482 
3738.045408  	0.001161 
3739.974224  	0.001129 
3741.903040  	0.000707 
3743.831856  	-0.000112 
3745.760672  	0.000805 
3747.689488  	0.000367 
3749.618304  	-0.001184 
3751.547120  	-0.001091 
3753.475936  	0.001059 
3755.404752  	0.001760 
3757.333568  	0.001217 
3759.262384  	0.001196 
3761.191200  	0.002171 
3763.120016  	0.002520 
3765.048832  	0.001959 
3766.977648  	0.001961 
3768.906464  	0.001603 
3770.835280  	0.002026 
3772.764096  	0.002747 
3774.692912  	0.002683 
3776.621728  	0.002238 
3778.550544  	0.001614 
3780.479360  	0.001847 
3782.408176  	0.002176 
3784.336992  	0.001839 
3786.265808  	0.002271 
3788.194624  	0.002674 
3790.123440  	0.002667 
3792.052256  	0.002541 
3793.981072  	0.002156 
3795.909888  	0.001416 
3797.838704  	0.001507 
3799.767520  	0.000631 
3801.696336  	-0.000094 
3803.625152  	0.001232 
3805.553968  	0.000986 
3807.482784  	0.001175 
3809.411600  	0.002654 
3811.340416  	0.002977 
3813.269232  	0.002164 
3815.198048  	0.000471 
3817.126864  	0.000630 
3819.055680  	0.000201 
3820.984496  	-0.000766 
3822.913312  	0.001189 
3824.842128  	0.001771 
3826.770944  	0.001617 
3828.699760  	0.002048 
3830.628576  	0.001492 
3832.557392  	0.001007 
3834.486208  	0.000604 
3836.415024  	-0.000154 
3838.343840  	-0.000247 
3840.272656  	0.000465 
3842.201472  	0.001106 
3844.130288  	0.001620 
3846.059104  	0.002363 
3847.987920  	0.002320 
3849.916736  	0.001328 
3851.845552  	-0.000664 
3853.774368  	-0.000758 
3855.703184  	0.001356 
3857.632000  	0.002101 
3859.560816  	0.002220 
3861.489632  	0.001593 
3863.418448  	0.000939 
3865.347264  	0.001138 
3867.276080  	0.001525 
3869.204896  	0.000879 
3871.133712  	0.001821 
3873.062528  	0.001796 
3874.991344  	0.002009 
3876.920160  	0.002591 
3878.848976  	0.001968 
3880.777792  	0.001782 
3882.706608  	0.002306 
3884.635424  	0.001655 
3886.564240  	0.001898 
3888.493056  	0.002414 
3890.421872  	0.001914 
3892.350688  	0.002221 
3894.279504  	0.002716 
3896.208320  	0.002637 
3898.137136  	0.002037 
3900.065952  	0.001502 
3901.994768  	0.001400 
3903.923584  	0.001642 
3905.852400  	0.002310 
3907.781216  	0.002844 
3909.710032  	0.002951 
3911.638848  	0.002887 
3913.567664  	0.002902 
3915.496480  	0.002801 
3917.425296  	0.002999 
3919.354112  	0.002926 
3921.282928  	0.002838 
3923.211744  	0.002764 
3925.140560  	0.002752 
3927.069376  	0.002757 
3928.998192  	0.002549 
3930.927008  	0.002750 
3932.855824  	0.003241 
3934.784640  	0.003246 
3936.713456  	0.003266 
3938.642272  	0.003334 
3940.571088  	0.003049 
3942.499904  	0.003155 
3944.428720  	0.003280 
3946.357536  	0.003088 
3948.286352  	0.003003 
3950.215168  	0.002807 
3952.143984  	0.002657 
3954.072800  	0.002780 
3956.001616  	0.002761 
3957.930432  	0.002928 
3959.859248  	0.003228 
3961.788064  	0.003170 
3963.716880  	0.003113 
3965.645696  	0.003134 
3967.574512  	0.003300 
3969.503328  	0.003340 
3971.432144  	0.003138 
3973.360960  	0.003063 
3975.289776  	0.003177 
3977.218592  	0.003374 
3979.147408  	0.003435 
3981.076224  	0.003214 
3983.005040  	0.003150 
3984.933856  	0.003204 
3986.862672  	0.003226 
3988.791488  	0.003233 
3990.720304  	0.003341 
3992.649120  	0.003412 
3994.577936  	0.003283 
3996.506752  	0.003163 
3998.435568  	0.003171 
4000.364384  	0.003172 