##TITLE=No Description
##DATA TYPE=INFRARED SPECTRUM
##XUNITS=1/CM
##YUNITS=Abs
399.264912  	0.574989 
401.193728  	0.561426 
403.122544  	0.560644 
405.051360  	0.564239 
406.980176  	0.565142 
408.908992  	0.556957 
410.837808  	0.558090 
412.766624  	0.553301 
414.695440  	0.553506 
416.624256  	0.533865 
418.553072  	0.520269 
420.481888  	0.533513 
422.410704  	0.534724 
424.339520  	0.519981 
426.268336  	0.524492 
428.197152  	0.518653 
430.125968  	0.511932 
432.054784  	0.512150 
433.983600  	0.517281 
435.912416  	0.507461 
437.841232  	0.508315 
439.770048  	0.511219 
441.698864  	0.511399 
443.627680  	0.507530 
445.556496  	0.505003 
447.485312  	0.496217 
449.414128  	0.495295 
451.342944  	0.495826 
453.271760  	0.497586 
455.200576  	0.494830 
457.129392  	0.495888 
459.058208  	0.495883 
460.987024  	0.497669 
462.915840  	0.495446 
464.844656  	0.501184 
466.773472  	0.503407 
468.702288  	0.500963 
470.631104  	0.496786 
472.559920  	0.494022 
474.488736  	0.490064 
476.417552  	0.494298 
478.346368  	0.490094 
480.275184  	0.485658 
482.204000  	0.486265 
484.132816  	0.493620 
486.061632  	0.492603 
487.990448  	0.491913 
489.919264  	0.490023 
491.848080  	0.491538 
493.776896  	0.484716 
495.705712  	0.483228 
497.634528  	0.483978 
499.563344  	0.484477 
501.492160  	0.479059 
503.420976  	0.478614 
505.349792  	0.478874 
507.278608  	0.479242 
509.207424  	0.479211 
511.136240  	0.481761 
513.065056  	0.480706 
514.993872  	0.482197 
516.922688  	0.481675 
518.851504  	0.485079 
520.780320  	0.486006 
522.709136  	0.485598 
524.637952  	0.480891 
526.566768  	0.478276 
528.495584  	0.475600 
530.424400  	0.472549 
532.353216  	0.468820 
534.282032  	0.465596 
536.210848  	0.460609 
538.139664  	0.457960 
540.068480  	0.453438 
541.997296  	0.449341 
543.926112  	0.445292 
545.854928  	0.442331 
547.783744  	0.438153 
549.712560  	0.434455 
551.641376  	0.430787 
553.570192  	0.428908 
555.499008  	0.425497 
557.427824  	0.421792 
559.356640  	0.418024 
561.285456  	0.414774 
563.214272  	0.410575 
565.143088  	0.408857 
567.071904  	0.405620 
569.000720  	0.401516 
570.929536  	0.398010 
572.858352  	0.395187 
574.787168  	0.391637 
576.715984  	0.389316 
578.644800  	0.385332 
580.573616  	0.381636 
582.502432  	0.376555 
584.431248  	0.373389 
586.360064  	0.371648 
588.288880  	0.369864 
590.217696  	0.367064 
592.146512  	0.365270 
594.075328  	0.362786 
596.004144  	0.360034 
597.932960  	0.358455 
599.861776  	0.358956 
601.790592  	0.358531 
603.719408  	0.357118 
605.648224  	0.355187 
607.577040  	0.354916 
609.505856  	0.354481 
611.434672  	0.353053 
613.363488  	0.350225 
615.292304  	0.348238 
617.221120  	0.345955 
619.149936  	0.345204 
621.078752  	0.343683 
623.007568  	0.341537 
624.936384  	0.339753 
626.865200  	0.338520 
628.794016  	0.336686 
630.722832  	0.335592 
632.651648  	0.334489 
634.580464  	0.334022 
636.509280  	0.334819 
638.438096  	0.334972 
640.366912  	0.333735 
642.295728  	0.332090 
644.224544  	0.329844 
646.153360  	0.327598 
648.082176  	0.324386 
650.010992  	0.321459 
651.939808  	0.317857 
653.868624  	0.314345 
655.797440  	0.310169 
657.726256  	0.306902 
659.655072  	0.303000 
661.583888  	0.299161 
663.512704  	0.296035 
665.441520  	0.292980 
667.370336  	0.288454 
669.299152  	0.284859 
671.227968  	0.283853 
673.156784  	0.281315 
675.085600  	0.278423 
677.014416  	0.276785 
678.943232  	0.275480 
680.872048  	0.273890 
682.800864  	0.272461 
684.729680  	0.270979 
686.658496  	0.268892 
688.587312  	0.267202 
690.516128  	0.265830 
692.444944  	0.264403 
694.373760  	0.262921 
696.302576  	0.261621 
698.231392  	0.259679 
700.160208  	0.257303 
702.089024  	0.254532 
704.017840  	0.252716 
705.946656  	0.250268 
707.875472  	0.247561 
709.804288  	0.245736 
711.733104  	0.244405 
713.661920  	0.242918 
715.590736  	0.242308 
717.519552  	0.241631 
719.448368  	0.241961 
721.377184  	0.243403 
723.306000  	0.244686 
725.234816  	0.244510 
727.163632  	0.243014 
729.092448  	0.240730 
731.021264  	0.238593 
732.950080  	0.236051 
734.878896  	0.232974 
736.807712  	0.230088 
738.736528  	0.228093 
740.665344  	0.226938 
742.594160  	0.225917 
744.522976  	0.224459 
746.451792  	0.223222 
748.380608  	0.222427 
750.309424  	0.221942 
752.238240  	0.221159 
754.167056  	0.220518 
756.095872  	0.220001 
758.024688  	0.219424 
759.953504  	0.219094 
761.882320  	0.219157 
763.811136  	0.219223 
765.739952  	0.218688 
767.668768  	0.217935 
769.597584  	0.217129 
771.526400  	0.216919 
773.455216  	0.218724 
775.384032  	0.221704 
777.312848  	0.225366 
779.241664  	0.229009 
781.170480  	0.229894 
783.099296  	0.226939 
785.028112  	0.221938 
786.956928  	0.216256 
788.885744  	0.211447 
790.814560  	0.207601 
792.743376  	0.205221 
794.672192  	0.203621 
796.601008  	0.202919 
798.529824  	0.201359 
800.458640  	0.198203 
802.387456  	0.194916 
804.316272  	0.193475 
806.245088  	0.192766 
808.173904  	0.192524 
810.102720  	0.192603 
812.031536  	0.192639 
813.960352  	0.192509 
815.889168  	0.192417 
817.817984  	0.192565 
819.746800  	0.192655 
821.675616  	0.192122 
823.604432  	0.191751 
825.533248  	0.190950 
827.462064  	0.189902 
829.390880  	0.189151 
831.319696  	0.188165 
833.248512  	0.186524 
835.177328  	0.184405 
837.106144  	0.182132 
839.034960  	0.179316 
840.963776  	0.176328 
842.892592  	0.173980 
844.821408  	0.171359 
846.750224  	0.168672 
848.679040  	0.166420 
850.607856  	0.164280 
852.536672  	0.162639 
854.465488  	0.160939 
856.394304  	0.159586 
858.323120  	0.158361 
860.251936  	0.156876 
862.180752  	0.155276 
864.109568  	0.153696 
866.038384  	0.152032 
867.967200  	0.150420 
869.896016  	0.148914 
871.824832  	0.147562 
873.753648  	0.147109 
875.682464  	0.147299 
877.611280  	0.147615 
879.540096  	0.147930 
881.468912  	0.148768 
883.397728  	0.149420 
885.326544  	0.149892 
887.255360  	0.149935 
889.184176  	0.149090 
891.112992  	0.147825 
893.041808  	0.146302 
894.970624  	0.144080 
896.899440  	0.141415 
898.828256  	0.138271 
900.757072  	0.135187 
902.685888  	0.132570 
904.614704  	0.130882 
906.543520  	0.130705 
908.472336  	0.132075 
910.401152  	0.134262 
912.329968  	0.137134 
914.258784  	0.140110 
916.187600  	0.142825 
918.116416  	0.144546 
920.045232  	0.145255 
921.974048  	0.144940 
923.902864  	0.144098 
925.831680  	0.143028 
927.760496  	0.142173 
929.689312  	0.141481 
931.618128  	0.141306 
933.546944  	0.141563 
935.475760  	0.141638 
937.404576  	0.141836 
939.333392  	0.142571 
941.262208  	0.143860 
943.191024  	0.146073 
945.119840  	0.149750 
947.048656  	0.154524 
948.977472  	0.160484 
950.906288  	0.167185 
952.835104  	0.174045 
954.763920  	0.180993 
956.692736  	0.187261 
958.621552  	0.192301 
960.550368  	0.195285 
962.479184  	0.196415 
964.408000  	0.194930 
966.336816  	0.191059 
968.265632  	0.184685 
970.194448  	0.176792 
972.123264  	0.167866 
974.052080  	0.158393 
975.980896  	0.149048 
977.909712  	0.140483 
979.838528  	0.133250 
981.767344  	0.127497 
983.696160  	0.123547 
985.624976  	0.121606 
987.553792  	0.122053 
989.482608  	0.124347 
991.411424  	0.128355 
993.340240  	0.133866 
995.269056  	0.140538 
997.197872  	0.147529 
999.126688  	0.154214 
1001.055504  	0.160925 
1002.984320  	0.167484 
1004.913136  	0.173824 
1006.841952  	0.179171 
1008.770768  	0.183638 
1010.699584  	0.186829 
1012.628400  	0.188953 
1014.557216  	0.189969 
1016.486032  	0.190730 
1018.414848  	0.191194 
1020.343664  	0.191568 
1022.272480  	0.191767 
1024.201296  	0.191496 
1026.130112  	0.190573 
1028.058928  	0.190843 
1029.987744  	0.192683 
1031.916560  	0.194467 
1033.845376  	0.196422 
1035.774192  	0.198553 
1037.703008  	0.201375 
1039.631824  	0.206162 
1041.560640  	0.212364 
1043.489456  	0.220639 
1045.418272  	0.230742 
1047.347088  	0.242798 
1049.275904  	0.254792 
1051.204720  	0.266440 
1053.133536  	0.275909 
1055.062352  	0.283244 
1056.991168  	0.287457 
1058.919984  	0.289989 
1060.848800  	0.290641 
1062.777616  	0.289344 
1064.706432  	0.285316 
1066.635248  	0.280764 
1068.564064  	0.276843 
1070.492880  	0.271701 
1072.421696  	0.265493 
1074.350512  	0.260068 
1076.279328  	0.255458 
1078.208144  	0.252454 
1080.136960  	0.250383 
1082.065776  	0.248698 
1083.994592  	0.246670 
1085.923408  	0.244566 
1087.852224  	0.241316 
1089.781040  	0.237915 
1091.709856  	0.233117 
1093.638672  	0.226871 
1095.567488  	0.218847 
1097.496304  	0.210363 
1099.425120  	0.201052 
1101.353936  	0.191612 
1103.282752  	0.182341 
1105.211568  	0.173234 
1107.140384  	0.164024 
1109.069200  	0.154646 
1110.998016  	0.145961 
1112.926832  	0.137875 
1114.855648  	0.130277 
1116.784464  	0.122778 
1118.713280  	0.115776 
1120.642096  	0.109533 
1122.570912  	0.103555 
1124.499728  	0.097929 
1126.428544  	0.092616 
1128.357360  	0.087708 
1130.286176  	0.083312 
1132.214992  	0.079618 
1134.143808  	0.076279 
1136.072624  	0.073255 
1138.001440  	0.070356 
1139.930256  	0.067671 
1141.859072  	0.065170 
1143.787888  	0.062542 
1145.716704  	0.060419 
1147.645520  	0.058919 
1149.574336  	0.057861 
1151.503152  	0.057004 
1153.431968  	0.056649 
1155.360784  	0.056623 
1157.289600  	0.057218 
1159.218416  	0.058177 
1161.147232  	0.059593 
1163.076048  	0.061054 
1165.004864  	0.062800 
1166.933680  	0.064635 
1168.862496  	0.066776 
1170.791312  	0.069240 
1172.720128  	0.071606 
1174.648944  	0.073910 
1176.577760  	0.076563 
1178.506576  	0.079222 
1180.435392  	0.081760 
1182.364208  	0.084261 
1184.293024  	0.086927 
1186.221840  	0.089722 
1188.150656  	0.092881 
1190.079472  	0.096553 
1192.008288  	0.100982 
1193.937104  	0.105957 
1195.865920  	0.111582 
1197.794736  	0.117411 
1199.723552  	0.123780 
1201.652368  	0.130435 
1203.581184  	0.137323 
1205.510000  	0.143908 
1207.438816  	0.150447 
1209.367632  	0.156913 
1211.296448  	0.162709 
1213.225264  	0.168048 
1215.154080  	0.172293 
1217.082896  	0.175765 
1219.011712  	0.178447 
1220.940528  	0.180790 
1222.869344  	0.182387 
1224.798160  	0.183408 
1226.726976  	0.184109 
1228.655792  	0.184523 
1230.584608  	0.184135 
1232.513424  	0.183208 
1234.442240  	0.181230 
1236.371056  	0.178284 
1238.299872  	0.174695 
1240.228688  	0.169905 
1242.157504  	0.164375 
1244.086320  	0.159035 
1246.015136  	0.152739 
1247.943952  	0.146246 
1249.872768  	0.139775 
1251.801584  	0.133488 
1253.730400  	0.127201 
1255.659216  	0.121236 
1257.588032  	0.115440 
1259.516848  	0.109967 
1261.445664  	0.104885 
1263.374480  	0.100329 
1265.303296  	0.096215 
1267.232112  	0.092799 
1269.160928  	0.090195 
1271.089744  	0.088444 
1273.018560  	0.087565 
1274.947376  	0.087218 
1276.876192  	0.086801 
1278.805008  	0.086060 
1280.733824  	0.084585 
1282.662640  	0.081929 
1284.591456  	0.078415 
1286.520272  	0.074889 
1288.449088  	0.072098 
1290.377904  	0.069893 
1292.306720  	0.068222 
1294.235536  	0.066287 
1296.164352  	0.063462 
1298.093168  	0.060199 
1300.021984  	0.056905 
1301.950800  	0.053789 
1303.879616  	0.051156 
1305.808432  	0.049072 
1307.737248  	0.047336 
1309.666064  	0.045806 
1311.594880  	0.044816 
1313.523696  	0.044256 
1315.452512  	0.044023 
1317.381328  	0.044152 
1319.310144  	0.044757 
1321.238960  	0.045539 
1323.167776  	0.046407 
1325.096592  	0.047144 
1327.025408  	0.047401 
1328.954224  	0.047024 
1330.883040  	0.046373 
1332.811856  	0.045432 
1334.740672  	0.044477 
1336.669488  	0.043472 
1338.598304  	0.042792 
1340.527120  	0.042531 
1342.455936  	0.042290 
1344.384752  	0.042184 
1346.313568  	0.042693 
1348.242384  	0.043728 
1350.171200  	0.045328 
1352.100016  	0.047182 
1354.028832  	0.049041 
1355.957648  	0.051052 
1357.886464  	0.052877 
1359.815280  	0.054239 
1361.744096  	0.055536 
1363.672912  	0.057418 
1365.601728  	0.058547 
1367.530544  	0.058827 
1369.459360  	0.059021 
1371.388176  	0.058197 
1373.316992  	0.056575 
1375.245808  	0.055083 
1377.174624  	0.053318 
1379.103440  	0.051407 
1381.032256  	0.049802 
1382.961072  	0.048383 
1384.889888  	0.047126 
1386.818704  	0.046239 
1388.747520  	0.045785 
1390.676336  	0.044317 
1392.605152  	0.041848 
1394.533968  	0.040619 
1396.462784  	0.042082 
1398.391600  	0.042769 
1400.320416  	0.043795 
1402.249232  	0.044106 
1404.178048  	0.044699 
1406.106864  	0.046249 
1408.035680  	0.048111 
1409.964496  	0.049848 
1411.893312  	0.052132 
1413.822128  	0.054083 
1415.750944  	0.055396 
1417.679760  	0.055531 
1419.608576  	0.056394 
1421.537392  	0.056736 
1423.466208  	0.055703 
1425.395024  	0.054732 
1427.323840  	0.053002 
1429.252656  	0.051018 
1431.181472  	0.050090 
1433.110288  	0.049661 
1435.039104  	0.048817 
1436.967920  	0.049538 
1438.896736  	0.051103 
1440.825552  	0.051593 
1442.754368  	0.052085 
1444.683184  	0.051871 
1446.612000  	0.051506 
1448.540816  	0.051814 
1450.469632  	0.052279 
1452.398448  	0.052028 
1454.327264  	0.051092 
1456.256080  	0.049655 
1458.184896  	0.051628 
1460.113712  	0.053440 
1462.042528  	0.053701 
1463.971344  	0.053473 
1465.900160  	0.055917 
1467.828976  	0.058248 
1469.757792  	0.059782 
1471.686608  	0.061556 
1473.615424  	0.066911 
1475.544240  	0.071037 
1477.473056  	0.074351 
1479.401872  	0.075555 
1481.330688  	0.076181 
1483.259504  	0.076406 
1485.188320  	0.075212 
1487.117136  	0.072740 
1489.045952  	0.070402 
1490.974768  	0.068586 
1492.903584  	0.066181 
1494.832400  	0.062077 
1496.761216  	0.058157 
1498.690032  	0.055310 
1500.618848  	0.053145 
1502.547664  	0.050428 
1504.476480  	0.046219 
1506.405296  	0.042213 
1508.334112  	0.044163 
1510.262928  	0.044334 
1512.191744  	0.043474 
1514.120560  	0.042205 
1516.049376  	0.041113 
1517.978192  	0.041825 
1519.907008  	0.041922 
1521.835824  	0.044138 
1523.764640  	0.047782 
1525.693456  	0.050253 
1527.622272  	0.052998 
1529.551088  	0.054521 
1531.479904  	0.054072 
1533.408720  	0.052992 
1535.337536  	0.052862 
1537.266352  	0.049431 
1539.195168  	0.044136 
1541.123984  	0.042805 
1543.052800  	0.043613 
1544.981616  	0.043570 
1546.910432  	0.043305 
1548.839248  	0.042213 
1550.768064  	0.042612 
1552.696880  	0.042162 
1554.625696  	0.042108 
1556.554512  	0.040691 
1558.483328  	0.039484 
1560.412144  	0.047700 
1562.340960  	0.051187 
1564.269776  	0.053077 
1566.198592  	0.056784 
1568.127408  	0.059033 
1570.056224  	0.064415 
1571.985040  	0.069379 
1573.913856  	0.070540 
1575.842672  	0.071610 
1577.771488  	0.075495 
1579.700304  	0.075906 
1581.629120  	0.075734 
1583.557936  	0.075975 
1585.486752  	0.077546 
1587.415568  	0.080034 
1589.344384  	0.084019 
1591.273200  	0.088660 
1593.202016  	0.093986 
1595.130832  	0.099045 
1597.059648  	0.104134 
1598.988464  	0.107866 
1600.917280  	0.110825 
1602.846096  	0.112435 
1604.774912  	0.113341 
1606.703728  	0.112737 
1608.632544  	0.112230 
1610.561360  	0.111611 
1612.490176  	0.111265 
1614.418992  	0.109656 
1616.347808  	0.110374 
1618.276624  	0.115016 
1620.205440  	0.118231 
1622.134256  	0.120784 
1624.063072  	0.127916 
1625.991888  	0.134148 
1627.920704  	0.140876 
1629.849520  	0.148702 
1631.778336  	0.154400 
1633.707152  	0.157150 
1635.635968  	0.163356 
1637.564784  	0.172491 
1639.493600  	0.176505 
1641.422416  	0.179367 
1643.351232  	0.180407 
1645.280048  	0.179099 
1647.208864  	0.180570 
1649.137680  	0.181944 
1651.066496  	0.178017 
1652.995312  	0.174507 
1654.924128  	0.179337 
1656.852944  	0.177951 
1658.781760  	0.175866 
1660.710576  	0.173147 
1662.639392  	0.171148 
1664.568208  	0.170610 
1666.497024  	0.168121 
1668.425840  	0.164542 
1670.354656  	0.163763 
1672.283472  	0.163432 
1674.212288  	0.161579 
1676.141104  	0.162525 
1678.069920  	0.162998 
1679.998736  	0.162332 
1681.927552  	0.160240 
1683.856368  	0.158372 
1685.785184  	0.162533 
1687.714000  	0.161873 
1689.642816  	0.160531 
1691.571632  	0.158834 
1693.500448  	0.155257 
1695.429264  	0.150645 
1697.358080  	0.147854 
1699.286896  	0.142756 
1701.215712  	0.140286 
1703.144528  	0.137271 
1705.073344  	0.132119 
1707.002160  	0.127889 
1708.930976  	0.123650 
1710.859792  	0.118452 
1712.788608  	0.112082 
1714.717424  	0.105064 
1716.646240  	0.097727 
1718.575056  	0.091895 
1720.503872  	0.087052 
1722.432688  	0.081516 
1724.361504  	0.075358 
1726.290320  	0.069572 
1728.219136  	0.063547 
1730.147952  	0.057925 
1732.076768  	0.052139 
1734.005584  	0.046761 
1735.934400  	0.043536 
1737.863216  	0.040025 
1739.792032  	0.035505 
1741.720848  	0.032630 
1743.649664  	0.029788 
1745.578480  	0.027046 
1747.507296  	0.023878 
1749.436112  	0.022108 
1751.364928  	0.021478 
1753.293744  	0.021131 
1755.222560  	0.019474 
1757.151376  	0.018675 
1759.080192  	0.017603 
1761.009008  	0.016676 
1762.937824  	0.016618 
1764.866640  	0.016501 
1766.795456  	0.015432 
1768.724272  	0.015018 
1770.653088  	0.013062 
1772.581904  	0.012979 
1774.510720  	0.014307 
1776.439536  	0.014504 
1778.368352  	0.014014 
1780.297168  	0.013831 
1782.225984  	0.013762 
1784.154800  	0.013641 
1786.083616  	0.013628 
1788.012432  	0.013294 
1789.941248  	0.012130 
1791.870064  	0.011688 
1793.798880  	0.012235 
1795.727696  	0.012669 
1797.656512  	0.012097 
1799.585328  	0.011617 
1801.514144  	0.011802 
1803.442960  	0.012136 
1805.371776  	0.012008 
1807.300592  	0.011773 
1809.229408  	0.010987 
1811.158224  	0.011033 
1813.087040  	0.011340 
1815.015856  	0.011182 
1816.944672  	0.010934 
1818.873488  	0.011421 
1820.802304  	0.011443 
1822.731120  	0.011081 
1824.659936  	0.010437 
1826.588752  	0.010723 
1828.517568  	0.009972 
1830.446384  	0.010617 
1832.375200  	0.011348 
1834.304016  	0.011210 
1836.232832  	0.010943 
1838.161648  	0.011278 
1840.090464  	0.011154 
1842.019280  	0.010291 
1843.948096  	0.009579 
1845.876912  	0.010515 
1847.805728  	0.010655 
1849.734544  	0.011027 
1851.663360  	0.010953 
1853.592176  	0.011150 
1855.520992  	0.011151 
1857.449808  	0.011352 
1859.378624  	0.011151 
1861.307440  	0.010955 
1863.236256  	0.010493 
1865.165072  	0.010286 
1867.093888  	0.009674 
1869.022704  	0.010051 
1870.951520  	0.010553 
1872.880336  	0.010770 
1874.809152  	0.010422 
1876.737968  	0.010448 
1878.666784  	0.010148 
1880.595600  	0.010331 
1882.524416  	0.010471 
1884.453232  	0.010406 
1886.382048  	0.010059 
1888.310864  	0.010079 
1890.239680  	0.010335 
1892.168496  	0.010883 
1894.097312  	0.010459 
1896.026128  	0.010574 
1897.954944  	0.010488 
1899.883760  	0.010168 
1901.812576  	0.009778 
1903.741392  	0.010012 
1905.670208  	0.010038 
1907.599024  	0.009850 
1909.527840  	0.009481 
1911.456656  	0.010210 
1913.385472  	0.010756 
1915.314288  	0.010863 
1917.243104  	0.009933 
1919.171920  	0.009790 
1921.100736  	0.009794 
1923.029552  	0.010337 
1924.958368  	0.010022 
1926.887184  	0.010137 
1928.816000  	0.009635 
1930.744816  	0.009275 
1932.673632  	0.008995 
1934.602448  	0.009553 
1936.531264  	0.009750 
1938.460080  	0.009883 
1940.388896  	0.009148 
1942.317712  	0.009301 
1944.246528  	0.009586 
1946.175344  	0.010113 
1948.104160  	0.009254 
1950.032976  	0.009576 
1951.961792  	0.009979 
1953.890608  	0.009814 
1955.819424  	0.008844 
1957.748240  	0.009056 
1959.677056  	0.008978 
1961.605872  	0.008691 
1963.534688  	0.007744 
1965.463504  	0.008574 
1967.392320  	0.008833 
1969.321136  	0.008934 
1971.249952  	0.009275 
1973.178768  	0.010091 
1975.107584  	0.008296 
1977.036400  	0.008686 
1978.965216  	0.011719 
1980.894032  	0.011905 
1982.822848  	0.009570 
1984.751664  	0.009624 
1986.680480  	0.009476 
1988.609296  	0.010058 
1990.538112  	0.009979 
1992.466928  	0.010832 
1994.395744  	0.011284 
1996.324560  	0.011711 
1998.253376  	0.010585 
2000.182192  	0.009772 
2002.111008  	0.009130 
2004.039824  	0.009007 
2005.968640  	0.009189 
2007.897456  	0.011557 
2009.826272  	0.011130 
2011.755088  	0.009547 
2013.683904  	0.009320 
2015.612720  	0.010149 
2017.541536  	0.008713 
2019.470352  	0.008724 
2021.399168  	0.008387 
2023.327984  	0.009834 
2025.256800  	0.010538 
2027.185616  	0.010287 
2029.114432  	0.009831 
2031.043248  	0.010967 
2032.972064  	0.010484 
2034.900880  	0.010928 
2036.829696  	0.010721 
2038.758512  	0.010382 
2040.687328  	0.010120 
2042.616144  	0.010206 
2044.544960  	0.010411 
2046.473776  	0.011441 
2048.402592  	0.011452 
2050.331408  	0.012602 
2052.260224  	0.011844 
2054.189040  	0.011364 
2056.117856  	0.011086 
2058.046672  	0.011125 
2059.975488  	0.010836 
2061.904304  	0.011210 
2063.833120  	0.012170 
2065.761936  	0.012612 
2067.690752  	0.012008 
2069.619568  	0.011355 
2071.548384  	0.010737 
2073.477200  	0.011455 
2075.406016  	0.012247 
2077.334832  	0.012251 
2079.263648  	0.011594 
2081.192464  	0.011695 
2083.121280  	0.012236 
2085.050096  	0.012239 
2086.978912  	0.011921 
2088.907728  	0.011918 
2090.836544  	0.011134 
2092.765360  	0.010657 
2094.694176  	0.010611 
2096.622992  	0.011067 
2098.551808  	0.011049 
2100.480624  	0.010893 
2102.409440  	0.010713 
2104.338256  	0.011337 
2106.267072  	0.011675 
2108.195888  	0.011742 
2110.124704  	0.012231 
2112.053520  	0.012694 
2113.982336  	0.012160 
2115.911152  	0.012110 
2117.839968  	0.011849 
2119.768784  	0.011216 
2121.697600  	0.010645 
2123.626416  	0.010255 
2125.555232  	0.010217 
2127.484048  	0.010680 
2129.412864  	0.010411 
2131.341680  	0.009642 
2133.270496  	0.010104 
2135.199312  	0.011150 
2137.128128  	0.011445 
2139.056944  	0.011154 
2140.985760  	0.010172 
2142.914576  	0.010985 
2144.843392  	0.010752 
2146.772208  	0.010821 
2148.701024  	0.010745 
2150.629840  	0.011326 
2152.558656  	0.010531 
2154.487472  	0.008932 
2156.416288  	0.007883 
2158.345104  	0.010466 
2160.273920  	0.014097 
2162.202736  	0.014558 
2164.131552  	0.013843 
2166.060368  	0.015267 
2167.989184  	0.014412 
2169.918000  	0.013247 
2171.846816  	0.012569 
2173.775632  	0.012685 
2175.704448  	0.012811 
2177.633264  	0.013152 
2179.562080  	0.012697 
2181.490896  	0.012904 
2183.419712  	0.012856 
2185.348528  	0.013364 
2187.277344  	0.012981 
2189.206160  	0.012882 
2191.134976  	0.013479 
2193.063792  	0.014489 
2194.992608  	0.014413 
2196.921424  	0.013693 
2198.850240  	0.013841 
2200.779056  	0.013608 
2202.707872  	0.013058 
2204.636688  	0.013175 
2206.565504  	0.013723 
2208.494320  	0.014567 
2210.423136  	0.013263 
2212.351952  	0.012710 
2214.280768  	0.012899 
2216.209584  	0.012932 
2218.138400  	0.012779 
2220.067216  	0.013029 
2221.996032  	0.013077 
2223.924848  	0.012771 
2225.853664  	0.012977 
2227.782480  	0.013736 
2229.711296  	0.013813 
2231.640112  	0.013513 
2233.568928  	0.012911 
2235.497744  	0.012575 
2237.426560  	0.012470 
2239.355376  	0.012829 
2241.284192  	0.012436 
2243.213008  	0.012426 
2245.141824  	0.012922 
2247.070640  	0.013024 
2248.999456  	0.012574 
2250.928272  	0.012831 
2252.857088  	0.012802 
2254.785904  	0.012856 
2256.714720  	0.013140 
2258.643536  	0.013546 
2260.572352  	0.013194 
2262.501168  	0.013143 
2264.429984  	0.013161 
2266.358800  	0.013369 
2268.287616  	0.013717 
2270.216432  	0.013996 
2272.145248  	0.013538 
2274.074064  	0.013437 
2276.002880  	0.013598 
2277.931696  	0.014180 
2279.860512  	0.014404 
2281.789328  	0.014231 
2283.718144  	0.014212 
2285.646960  	0.014395 
2287.575776  	0.014346 
2289.504592  	0.014041 
2291.433408  	0.013746 
2293.362224  	0.013723 
2295.291040  	0.013736 
2297.219856  	0.013881 
2299.148672  	0.013855 
2301.077488  	0.013845 
2303.006304  	0.013905 
2304.935120  	0.013857 
2306.863936  	0.013525 
2308.792752  	0.013529 
2310.721568  	0.013700 
2312.650384  	0.013558 
2314.579200  	0.013052 
2316.508016  	0.012787 
2318.436832  	0.012212 
2320.365648  	0.011675 
2322.294464  	0.011298 
2324.223280  	0.010690 
2326.152096  	0.009229 
2328.080912  	0.008262 
2330.009728  	0.007711 
2331.938544  	0.007388 
2333.867360  	0.006682 
2335.796176  	0.005690 
2337.724992  	0.005023 
2339.653808  	0.004966 
2341.582624  	0.005282 
2343.511440  	0.006954 
2345.440256  	0.008526 
2347.369072  	0.010044 
2349.297888  	0.009653 
2351.226704  	0.007697 
2353.155520  	0.006021 
2355.084336  	0.004434 
2357.013152  	0.003121 
2358.941968  	0.002687 
2360.870784  	0.002364 
2362.799600  	0.003017 
2364.728416  	0.003979 
2366.657232  	0.005278 
2368.586048  	0.006306 
2370.514864  	0.007811 
2372.443680  	0.009617 
2374.372496  	0.011188 
2376.301312  	0.012376 
2378.230128  	0.013440 
2380.158944  	0.013903 
2382.087760  	0.014018 
2384.016576  	0.014060 
2385.945392  	0.014255 
2387.874208  	0.014165 
2389.803024  	0.013981 
2391.731840  	0.013822 
2393.660656  	0.013895 
2395.589472  	0.014066 
2397.518288  	0.014203 
2399.447104  	0.014053 
2401.375920  	0.013853 
2403.304736  	0.013930 
2405.233552  	0.014112 
2407.162368  	0.014160 
2409.091184  	0.014088 
2411.020000  	0.014187 
2412.948816  	0.014274 
2414.877632  	0.014284 
2416.806448  	0.014446 
2418.735264  	0.014670 
2420.664080  	0.014660 
2422.592896  	0.014487 
2424.521712  	0.014390 
2426.450528  	0.014413 
2428.379344  	0.014433 
2430.308160  	0.014591 
2432.236976  	0.014765 
2434.165792  	0.014980 
2436.094608  	0.015496 
2438.023424  	0.015622 
2439.952240  	0.015611 
2441.881056  	0.015694 
2443.809872  	0.015738 
2445.738688  	0.015624 
2447.667504  	0.015616 
2449.596320  	0.015649 
2451.525136  	0.015669 
2453.453952  	0.015665 
2455.382768  	0.015966 
2457.311584  	0.016295 
2459.240400  	0.016253 
2461.169216  	0.015919 
2463.098032  	0.015967 
2465.026848  	0.016105 
2466.955664  	0.016054 
2468.884480  	0.015710 
2470.813296  	0.015682 
2472.742112  	0.016020 
2474.670928  	0.016131 
2476.599744  	0.016030 
2478.528560  	0.016244 
2480.457376  	0.016526 
2482.386192  	0.016586 
2484.315008  	0.016569 
2486.243824  	0.016522 
2488.172640  	0.016469 
2490.101456  	0.016642 
2492.030272  	0.016861 
2493.959088  	0.016773 
2495.887904  	0.016470 
2497.816720  	0.016423 
2499.745536  	0.016576 
2501.674352  	0.016792 
2503.603168  	0.016810 
2505.531984  	0.016803 
2507.460800  	0.016867 
2509.389616  	0.016777 
2511.318432  	0.016570 
2513.247248  	0.016693 
2515.176064  	0.016863 
2517.104880  	0.017246 
2519.033696  	0.017324 
2520.962512  	0.017404 
2522.891328  	0.017800 
2524.820144  	0.017942 
2526.748960  	0.017815 
2528.677776  	0.017835 
2530.606592  	0.017812 
2532.535408  	0.017809 
2534.464224  	0.017875 
2536.393040  	0.018048 
2538.321856  	0.018033 
2540.250672  	0.018121 
2542.179488  	0.018157 
2544.108304  	0.018264 
2546.037120  	0.018251 
2547.965936  	0.018494 
2549.894752  	0.018464 
2551.823568  	0.018548 
2553.752384  	0.018666 
2555.681200  	0.018915 
2557.610016  	0.019083 
2559.538832  	0.019035 
2561.467648  	0.019025 
2563.396464  	0.019164 
2565.325280  	0.019400 
2567.254096  	0.019610 
2569.182912  	0.019561 
2571.111728  	0.019408 
2573.040544  	0.019087 
2574.969360  	0.019241 
2576.898176  	0.019686 
2578.826992  	0.020025 
2580.755808  	0.019915 
2582.684624  	0.019733 
2584.613440  	0.019681 
2586.542256  	0.020010 
2588.471072  	0.020267 
2590.399888  	0.020247 
2592.328704  	0.020240 
2594.257520  	0.020428 
2596.186336  	0.020714 
2598.115152  	0.020830 
2600.043968  	0.020783 
2601.972784  	0.020726 
2603.901600  	0.020833 
2605.830416  	0.021130 
2607.759232  	0.021276 
2609.688048  	0.021339 
2611.616864  	0.021316 
2613.545680  	0.021441 
2615.474496  	0.021554 
2617.403312  	0.021463 
2619.332128  	0.021642 
2621.260944  	0.021960 
2623.189760  	0.021941 
2625.118576  	0.022035 
2627.047392  	0.022244 
2628.976208  	0.022497 
2630.905024  	0.022569 
2632.833840  	0.022638 
2634.762656  	0.022752 
2636.691472  	0.022864 
2638.620288  	0.022939 
2640.549104  	0.023051 
2642.477920  	0.023100 
2644.406736  	0.023190 
2646.335552  	0.023455 
2648.264368  	0.023630 
2650.193184  	0.023768 
2652.122000  	0.023928 
2654.050816  	0.024049 
2655.979632  	0.024052 
2657.908448  	0.024098 
2659.837264  	0.024243 
2661.766080  	0.024255 
2663.694896  	0.024287 
2665.623712  	0.024240 
2667.552528  	0.024245 
2669.481344  	0.024392 
2671.410160  	0.024564 
2673.338976  	0.024713 
2675.267792  	0.024871 
2677.196608  	0.025047 
2679.125424  	0.025214 
2681.054240  	0.025222 
2682.983056  	0.025239 
2684.911872  	0.025406 
2686.840688  	0.025520 
2688.769504  	0.025623 
2690.698320  	0.025727 
2692.627136  	0.025868 
2694.555952  	0.025985 
2696.484768  	0.025949 
2698.413584  	0.026006 
2700.342400  	0.026065 
2702.271216  	0.026224 
2704.200032  	0.026514 
2706.128848  	0.026731 
2708.057664  	0.026775 
2709.986480  	0.026838 
2711.915296  	0.026940 
2713.844112  	0.027009 
2715.772928  	0.027151 
2717.701744  	0.027345 
2719.630560  	0.027410 
2721.559376  	0.027502 
2723.488192  	0.027668 
2725.417008  	0.027908 
2727.345824  	0.028005 
2729.274640  	0.028016 
2731.203456  	0.028042 
2733.132272  	0.028197 
2735.061088  	0.028445 
2736.989904  	0.028598 
2738.918720  	0.028546 
2740.847536  	0.028471 
2742.776352  	0.028651 
2744.705168  	0.028893 
2746.633984  	0.028965 
2748.562800  	0.029027 
2750.491616  	0.029115 
2752.420432  	0.029147 
2754.349248  	0.029144 
2756.278064  	0.029235 
2758.206880  	0.029269 
2760.135696  	0.029457 
2762.064512  	0.029493 
2763.993328  	0.029414 
2765.922144  	0.029466 
2767.850960  	0.029569 
2769.779776  	0.029545 
2771.708592  	0.029501 
2773.637408  	0.029481 
2775.566224  	0.029510 
2777.495040  	0.029603 
2779.423856  	0.029745 
2781.352672  	0.029946 
2783.281488  	0.030141 
2785.210304  	0.030116 
2787.139120  	0.030240 
2789.067936  	0.030385 
2790.996752  	0.030329 
2792.925568  	0.030413 
2794.854384  	0.030570 
2796.783200  	0.030560 
2798.712016  	0.030427 
2800.640832  	0.030556 
2802.569648  	0.030733 
2804.498464  	0.030786 
2806.427280  	0.030783 
2808.356096  	0.030840 
2810.284912  	0.031088 
2812.213728  	0.031168 
2814.142544  	0.031218 
2816.071360  	0.031394 
2818.000176  	0.031340 
2819.928992  	0.031189 
2821.857808  	0.031280 
2823.786624  	0.031237 
2825.715440  	0.031070 
2827.644256  	0.031033 
2829.573072  	0.031069 
2831.501888  	0.030909 
2833.430704  	0.030814 
2835.359520  	0.030731 
2837.288336  	0.030559 
2839.217152  	0.030476 
2841.145968  	0.030373 
2843.074784  	0.030308 
2845.003600  	0.030427 
2846.932416  	0.030628 
2848.861232  	0.030754 
2850.790048  	0.030607 
2852.718864  	0.030237 
2854.647680  	0.029941 
2856.576496  	0.029658 
2858.505312  	0.029253 
2860.434128  	0.029001 
2862.362944  	0.028792 
2864.291760  	0.028460 
2866.220576  	0.028214 
2868.149392  	0.028357 
2870.078208  	0.028671 
2872.007024  	0.028902 
2873.935840  	0.029096 
2875.864656  	0.029431 
2877.793472  	0.029778 
2879.722288  	0.029885 
2881.651104  	0.029864 
2883.579920  	0.029916 
2885.508736  	0.030063 
2887.437552  	0.030335 
2889.366368  	0.030427 
2891.295184  	0.030406 
2893.224000  	0.030446 
2895.152816  	0.030570 
2897.081632  	0.030232 
2899.010448  	0.029467 
2900.939264  	0.029187 
2902.868080  	0.029978 
2904.796896  	0.030639 
2906.725712  	0.030930 
2908.654528  	0.031249 
2910.583344  	0.031699 
2912.512160  	0.032558 
2914.440976  	0.033589 
2916.369792  	0.034229 
2918.298608  	0.034664 
2920.227424  	0.035110 
2922.156240  	0.035670 
2924.085056  	0.036112 
2926.013872  	0.036651 
2927.942688  	0.037407 
2929.871504  	0.038091 
2931.800320  	0.038717 
2933.729136  	0.039160 
2935.657952  	0.039287 
2937.586768  	0.039650 
2939.515584  	0.039895 
2941.444400  	0.039916 
2943.373216  	0.040074 
2945.302032  	0.040220 
2947.230848  	0.040267 
2949.159664  	0.040098 
2951.088480  	0.039863 
2953.017296  	0.039732 
2954.946112  	0.039372 
2956.874928  	0.038843 
2958.803744  	0.038295 
2960.732560  	0.037888 
2962.661376  	0.037611 
2964.590192  	0.037049 
2966.519008  	0.036531 
2968.447824  	0.036074 
2970.376640  	0.035541 
2972.305456  	0.035061 
2974.234272  	0.034927 
2976.163088  	0.034810 
2978.091904  	0.034877 
2980.020720  	0.034863 
2981.949536  	0.034760 
2983.878352  	0.034514 
2985.807168  	0.034166 
2987.735984  	0.033996 
2989.664800  	0.034277 
2991.593616  	0.035427 
2993.522432  	0.036070 
2995.451248  	0.036409 
2997.380064  	0.036773 
2999.308880  	0.037287 
3001.237696  	0.037879 
3003.166512  	0.038400 
3005.095328  	0.039085 
3007.024144  	0.040018 
3008.952960  	0.040705 
3010.881776  	0.041130 
3012.810592  	0.041663 
3014.739408  	0.042220 
3016.668224  	0.042921 
3018.597040  	0.043576 
3020.525856  	0.043971 
3022.454672  	0.044465 
3024.383488  	0.045201 
3026.312304  	0.045716 
3028.241120  	0.045954 
3030.169936  	0.046242 
3032.098752  	0.046934 
3034.027568  	0.047249 
3035.956384  	0.047277 
3037.885200  	0.047691 
3039.814016  	0.048187 
3041.742832  	0.048627 
3043.671648  	0.048958 
3045.600464  	0.049232 
3047.529280  	0.049527 
3049.458096  	0.049852 
3051.386912  	0.050013 
3053.315728  	0.050230 
3055.244544  	0.050708 
3057.173360  	0.051352 
3059.102176  	0.051771 
3061.030992  	0.051968 
3062.959808  	0.052196 
3064.888624  	0.052656 
3066.817440  	0.053147 
3068.746256  	0.053441 
3070.675072  	0.053614 
3072.603888  	0.054108 
3074.532704  	0.054593 
3076.461520  	0.054968 
3078.390336  	0.055413 
3080.319152  	0.055897 
3082.247968  	0.056379 
3084.176784  	0.056908 
3086.105600  	0.057186 
3088.034416  	0.057467 
3089.963232  	0.057879 
3091.892048  	0.058129 
3093.820864  	0.058521 
3095.749680  	0.058948 
3097.678496  	0.059005 
3099.607312  	0.059369 
3101.536128  	0.059790 
3103.464944  	0.060256 
3105.393760  	0.060704 
3107.322576  	0.061128 
3109.251392  	0.061420 
3111.180208  	0.061592 
3113.109024  	0.061697 
3115.037840  	0.061950 
3116.966656  	0.062415 
3118.895472  	0.062873 
3120.824288  	0.062997 
3122.753104  	0.063199 
3124.681920  	0.063520 
3126.610736  	0.063602 
3128.539552  	0.063839 
3130.468368  	0.063989 
3132.397184  	0.064032 
3134.326000  	0.064384 
3136.254816  	0.064557 
3138.183632  	0.064817 
3140.112448  	0.065079 
3142.041264  	0.065183 
3143.970080  	0.065464 
3145.898896  	0.065757 
3147.827712  	0.066015 
3149.756528  	0.066361 
3151.685344  	0.066745 
3153.614160  	0.067164 
3155.542976  	0.067299 
3157.471792  	0.067486 
3159.400608  	0.067922 
3161.329424  	0.068273 
3163.258240  	0.068522 
3165.187056  	0.068779 
3167.115872  	0.068965 
3169.044688  	0.069078 
3170.973504  	0.069137 
3172.902320  	0.069297 
3174.831136  	0.069477 
3176.759952  	0.069531 
3178.688768  	0.069828 
3180.617584  	0.070051 
3182.546400  	0.069893 
3184.475216  	0.070076 
3186.404032  	0.070264 
3188.332848  	0.070324 
3190.261664  	0.070557 
3192.190480  	0.070631 
3194.119296  	0.070446 
3196.048112  	0.070452 
3197.976928  	0.070601 
3199.905744  	0.070486 
3201.834560  	0.070374 
3203.763376  	0.070421 
3205.692192  	0.070241 
3207.621008  	0.070074 
3209.549824  	0.069976 
3211.478640  	0.069770 
3213.407456  	0.069549 
3215.336272  	0.069614 
3217.265088  	0.069435 
3219.193904  	0.069076 
3221.122720  	0.068746 
3223.051536  	0.068629 
3224.980352  	0.068545 
3226.909168  	0.068195 
3228.837984  	0.067893 
3230.766800  	0.067798 
3232.695616  	0.067805 
3234.624432  	0.067860 
3236.553248  	0.067879 
3238.482064  	0.067795 
3240.410880  	0.067584 
3242.339696  	0.067391 
3244.268512  	0.067220 
3246.197328  	0.067261 
3248.126144  	0.067392 
3250.054960  	0.067509 
3251.983776  	0.067423 
3253.912592  	0.067287 
3255.841408  	0.067350 
3257.770224  	0.067559 
3259.699040  	0.067791 
3261.627856  	0.067926 
3263.556672  	0.067909 
3265.485488  	0.067901 
3267.414304  	0.068114 
3269.343120  	0.068272 
3271.271936  	0.068436 
3273.200752  	0.068656 
3275.129568  	0.068710 
3277.058384  	0.068724 
3278.987200  	0.068928 
3280.916016  	0.069038 
3282.844832  	0.069088 
3284.773648  	0.069170 
3286.702464  	0.069146 
3288.631280  	0.069311 
3290.560096  	0.069584 
3292.488912  	0.069799 
3294.417728  	0.069849 
3296.346544  	0.069952 
3298.275360  	0.070163 
3300.204176  	0.070503 
3302.132992  	0.070704 
3304.061808  	0.070931 
3305.990624  	0.071212 
3307.919440  	0.071254 
3309.848256  	0.071353 
3311.777072  	0.071420 
3313.705888  	0.071537 
3315.634704  	0.071949 
3317.563520  	0.072267 
3319.492336  	0.072379 
3321.421152  	0.072411 
3323.349968  	0.072619 
3325.278784  	0.072784 
3327.207600  	0.072821 
3329.136416  	0.072785 
3331.065232  	0.072592 
3332.994048  	0.072643 
3334.922864  	0.072685 
3336.851680  	0.072516 
3338.780496  	0.072488 
3340.709312  	0.072515 
3342.638128  	0.072321 
3344.566944  	0.071996 
3346.495760  	0.071763 
3348.424576  	0.071644 
3350.353392  	0.071479 
3352.282208  	0.071090 
3354.211024  	0.070946 
3356.139840  	0.071000 
3358.068656  	0.070675 
3359.997472  	0.070233 
3361.926288  	0.069932 
3363.855104  	0.069544 
3365.783920  	0.069286 
3367.712736  	0.069101 
3369.641552  	0.068774 
3371.570368  	0.068424 
3373.499184  	0.068049 
3375.428000  	0.067674 
3377.356816  	0.067448 
3379.285632  	0.067292 
3381.214448  	0.067098 
3383.143264  	0.066790 
3385.072080  	0.066689 
3387.000896  	0.066432 
3388.929712  	0.066002 
3390.858528  	0.065548 
3392.787344  	0.065276 
3394.716160  	0.064883 
3396.644976  	0.064487 
3398.573792  	0.064325 
3400.502608  	0.063892 
3402.431424  	0.063388 
3404.360240  	0.062993 
3406.289056  	0.062631 
3408.217872  	0.062206 
3410.146688  	0.061861 
3412.075504  	0.061909 
3414.004320  	0.061805 
3415.933136  	0.061299 
3417.861952  	0.060771 
3419.790768  	0.060453 
3421.719584  	0.060107 
3423.648400  	0.059735 
3425.577216  	0.059596 
3427.506032  	0.059396 
3429.434848  	0.058799 
3431.363664  	0.058321 
3433.292480  	0.058094 
3435.221296  	0.057908 
3437.150112  	0.057585 
3439.078928  	0.057247 
3441.007744  	0.056827 
3442.936560  	0.056497 
3444.865376  	0.055764 
3446.794192  	0.055193 
3448.723008  	0.055178 
3450.651824  	0.054807 
3452.580640  	0.054258 
3454.509456  	0.053760 
3456.438272  	0.053296 
3458.367088  	0.053007 
3460.295904  	0.052675 
3462.224720  	0.052018 
3464.153536  	0.051485 
3466.082352  	0.051338 
3468.011168  	0.051023 
3469.939984  	0.050363 
3471.868800  	0.049666 
3473.797616  	0.049249 
3475.726432  	0.048795 
3477.655248  	0.048085 
3479.584064  	0.047504 
3481.512880  	0.047243 
3483.441696  	0.046804 
3485.370512  	0.046041 
3487.299328  	0.045665 
3489.228144  	0.045417 
3491.156960  	0.044752 
3493.085776  	0.044313 
3495.014592  	0.043933 
3496.943408  	0.043718 
3498.872224  	0.043044 
3500.801040  	0.042348 
3502.729856  	0.041953 
3504.658672  	0.041642 
3506.587488  	0.041033 
3508.516304  	0.040584 
3510.445120  	0.040463 
3512.373936  	0.040256 
3514.302752  	0.039898 
3516.231568  	0.039443 
3518.160384  	0.038984 
3520.089200  	0.038621 
3522.018016  	0.038263 
3523.946832  	0.038200 
3525.875648  	0.037775 
3527.804464  	0.037092 
3529.733280  	0.036785 
3531.662096  	0.036478 
3533.590912  	0.036041 
3535.519728  	0.035775 
3537.448544  	0.035785 
3539.377360  	0.035401 
3541.306176  	0.034617 
3543.234992  	0.033739 
3545.163808  	0.033554 
3547.092624  	0.033641 
3549.021440  	0.033188 
3550.950256  	0.032523 
3552.879072  	0.032647 
3554.807888  	0.032644 
3556.736704  	0.032037 
3558.665520  	0.031636 
3560.594336  	0.031460 
3562.523152  	0.030692 
3564.451968  	0.029220 
3566.380784  	0.028570 
3568.309600  	0.029648 
3570.238416  	0.029692 
3572.167232  	0.028830 
3574.096048  	0.028347 
3576.024864  	0.027854 
3577.953680  	0.027340 
3579.882496  	0.026927 
3581.811312  	0.026615 
3583.740128  	0.025609 
3585.668944  	0.024169 
3587.597760  	0.024519 
3589.526576  	0.025325 
3591.455392  	0.024083 
3593.384208  	0.023145 
3595.313024  	0.022960 
3597.241840  	0.022715 
3599.170656  	0.022002 
3601.099472  	0.021803 
3603.028288  	0.021438 
3604.957104  	0.020189 
3606.885920  	0.018894 
3608.814736  	0.019336 
3610.743552  	0.018920 
3612.672368  	0.017675 
3614.601184  	0.017506 
3616.530000  	0.016223 
3618.458816  	0.015529 
3620.387632  	0.016712 
3622.316448  	0.016669 
3624.245264  	0.015574 
3626.174080  	0.013337 
3628.102896  	0.011620 
3630.031712  	0.014060 
3631.960528  	0.013967 
3633.889344  	0.013047 
3635.818160  	0.012536 
3637.746976  	0.012008 
3639.675792  	0.011990 
3641.604608  	0.011479 
3643.533424  	0.010216 
3645.462240  	0.007719 
3647.391056  	0.005627 
3649.319872  	0.006232 
3651.248688  	0.008780 
3653.177504  	0.008441 
3655.106320  	0.006800 
3657.035136  	0.007204 
3658.963952  	0.007094 
3660.892768  	0.006500 
3662.821584  	0.005980 
3664.750400  	0.005534 
3666.679216  	0.004168 
3668.608032  	0.002046 
3670.536848  	0.002918 
3672.465664  	0.003105 
3674.394480  	0.000417 
3676.323296  	0.002966 
3678.252112  	0.004670 
3680.180928  	0.004958 
3682.109744  	0.004875 
3684.038560  	0.004046 
3685.967376  	0.002333 
3687.896192  	0.000926 
3689.825008  	0.001867 
3691.753824  	0.003308 
3693.682640  	0.004120 
3695.611456  	0.004083 
3697.540272  	0.004078 
3699.469088  	0.003451 
3701.397904  	0.004044 
3703.326720  	0.005226 
3705.255536  	0.004857 
3707.184352  	0.003687 
3709.113168  	0.002680 
3711.041984  	0.002795 
3712.970800  	0.004800 
3714.899616  	0.005809 
3716.828432  	0.005227 
3718.757248  	0.004506 
3720.686064  	0.003883 
3722.614880  	0.004230 
3724.543696  	0.004588 
3726.472512  	0.005036 
3728.401328  	0.005029 
3730.330144  	0.002963 
3732.258960  	0.001822 
3734.187776  	0.002213 
3736.116592  	0.004295 
3738.045408  	0.005266 
3739.974224  	0.004316 
3741.903040  	0.002430 
3743.831856  	0.002045 
3745.760672  	0.005039 
3747.689488  	0.003078 
3749.618304  	0.002009 
3751.547120  	0.003753 
3753.475936  	0.006001 
3755.404752  	0.005139 
3757.333568  	0.004017 
3759.262384  	0.004272 
3761.191200  	0.005802 
3763.120016  	0.005567 
3765.048832  	0.005143 
3766.977648  	0.005187 
3768.906464  	0.004779 
3770.835280  	0.006218 
3772.764096  	0.006615 
3774.692912  	0.005951 
3776.621728  	0.005126 
3778.550544  	0.004619 
3780.479360  	0.005628 
3782.408176  	0.005603 
3784.336992  	0.005275 
3786.265808  	0.005859 
3788.194624  	0.006056 
3790.123440  	0.005928 
3792.052256  	0.005869 
3793.981072  	0.005134 
3795.909888  	0.004511 
3797.838704  	0.004709 
3799.767520  	0.003150 
3801.696336  	0.003988 
3803.625152  	0.005285 
3805.553968  	0.003849 
3807.482784  	0.005218 
3809.411600  	0.006586 
3811.340416  	0.006284 
3813.269232  	0.004786 
3815.198048  	0.003270 
3817.126864  	0.004520 
3819.055680  	0.003023 
3820.984496  	0.003145 
3822.913312  	0.006062 
3824.842128  	0.005113 
3826.770944  	0.004892 
3828.699760  	0.005134 
3830.628576  	0.004449 
3832.557392  	0.004553 
3834.486208  	0.003836 
3836.415024  	0.002545 
3838.343840  	0.003207 
3840.272656  	0.004489 
3842.201472  	0.004884 
3844.130288  	0.005297 
3846.059104  	0.005893 
3847.987920  	0.005159 
3849.916736  	0.003243 
3851.845552  	0.000791 
3853.774368  	0.003894 
3855.703184  	0.006843 
3857.632000  	0.006121 
3859.560816  	0.005242 
3861.489632  	0.004384 
3863.418448  	0.004162 
3865.347264  	0.005048 
3867.276080  	0.004507 
3869.204896  	0.003735 
3871.133712  	0.005926 
3873.062528  	0.005330 
3874.991344  	0.006015 
3876.920160  	0.005785 
3878.848976  	0.004538 
3880.777792  	0.005431 
3882.706608  	0.005709 
3884.635424  	0.004637 
3886.564240  	0.006107 
3888.493056  	0.005506 
3890.421872  	0.004635 
3892.350688  	0.005835 
3894.279504  	0.006108 
3896.208320  	0.005282 
3898.137136  	0.004417 
3900.065952  	0.004495 
3901.994768  	0.004535 
3903.923584  	0.005303 
3905.852400  	0.006605 
3907.781216  	0.006547 
3909.710032  	0.006181 
3911.638848  	0.006186 
3913.567664  	0.005989 
3915.496480  	0.005556 
3917.425296  	0.006148 
3919.354112  	0.006421 
3921.282928  	0.006492 
3923.211744  	0.006323 
3925.140560  	0.006459 
3927.069376  	0.006337 
3928.998192  	0.005909 
3930.927008  	0.006013 
3932.855824  	0.006633 
3934.784640  	0.006781 
3936.713456  	0.006752 
3938.642272  	0.006677 
3940.571088  	0.006124 
3942.499904  	0.006373 
3944.428720  	0.006829 
3946.357536  	0.006262 
3948.286352  	0.006059 
3950.215168  	0.006178 
3952.143984  	0.006324 
3954.072800  	0.006348 
3956.001616  	0.006278 
3957.930432  	0.006492 
3959.859248  	0.006695 
3961.788064  	0.006593 
3963.716880  	0.006611 
3965.645696  	0.006517 
3967.574512  	0.006534 
3969.503328  	0.006501 
3971.432144  	0.006386 
3973.360960  	0.006532 
3975.289776  	0.006880 
3977.218592  	0.006988 
3979.147408  	0.006858 
3981.076224  	0.006579 
3983.005040  	0.006582 
3984.933856  	0.006671 
3986.862672  	0.006621 
3988.791488  	0.006478 
3990.720304  	0.006638 
3992.649120  	0.006697 
3994.577936  	0.006595 
3996.506752  	0.006498 
3998.435568  	0.006592 
4000.364384  	0.006702 