##TITLE=No Description
##DATA TYPE=INFRARED SPECTRUM
##XUNITS=1/CM
##YUNITS=Abs
399.264912  	0.559218 
401.193728  	0.531665 
403.122544  	0.537620 
405.051360  	0.559737 
406.980176  	0.562810 
408.908992  	0.558309 
410.837808  	0.563718 
412.766624  	0.561891 
414.695440  	0.559326 
416.624256  	0.547381 
418.553072  	0.539099 
420.481888  	0.524163 
422.410704  	0.534460 
424.339520  	0.535013 
426.268336  	0.533411 
428.197152  	0.530088 
430.125968  	0.527086 
432.054784  	0.522954 
433.983600  	0.516344 
435.912416  	0.509159 
437.841232  	0.514343 
439.770048  	0.513337 
441.698864  	0.509168 
443.627680  	0.506207 
445.556496  	0.508964 
447.485312  	0.507540 
449.414128  	0.504193 
451.342944  	0.497425 
453.271760  	0.497869 
455.200576  	0.497655 
457.129392  	0.493375 
459.058208  	0.489408 
460.987024  	0.496672 
462.915840  	0.499210 
464.844656  	0.501801 
466.773472  	0.501010 
468.702288  	0.502041 
470.631104  	0.500787 
472.559920  	0.497305 
474.488736  	0.492303 
476.417552  	0.496434 
478.346368  	0.497439 
480.275184  	0.498143 
482.204000  	0.500508 
484.132816  	0.502284 
486.061632  	0.498165 
487.990448  	0.496911 
489.919264  	0.492496 
491.848080  	0.489256 
493.776896  	0.487080 
495.705712  	0.489151 
497.634528  	0.486299 
499.563344  	0.484473 
501.492160  	0.484322 
503.420976  	0.483734 
505.349792  	0.481042 
507.278608  	0.483093 
509.207424  	0.483627 
511.136240  	0.486514 
513.065056  	0.488158 
514.993872  	0.489567 
516.922688  	0.486464 
518.851504  	0.487058 
520.780320  	0.486371 
522.709136  	0.487163 
524.637952  	0.484919 
526.566768  	0.484686 
528.495584  	0.482623 
530.424400  	0.479608 
532.353216  	0.475322 
534.282032  	0.472910 
536.210848  	0.469039 
538.139664  	0.464324 
540.068480  	0.459780 
541.997296  	0.455390 
543.926112  	0.450180 
545.854928  	0.447270 
547.783744  	0.444453 
549.712560  	0.441355 
551.641376  	0.437410 
553.570192  	0.433681 
555.499008  	0.429180 
557.427824  	0.425991 
559.356640  	0.423024 
561.285456  	0.420324 
563.214272  	0.416060 
565.143088  	0.413702 
567.071904  	0.409168 
569.000720  	0.405550 
570.929536  	0.401030 
572.858352  	0.397737 
574.787168  	0.395887 
576.715984  	0.392617 
578.644800  	0.388144 
580.573616  	0.384461 
582.502432  	0.380423 
584.431248  	0.377839 
586.360064  	0.375641 
588.288880  	0.373595 
590.217696  	0.371299 
592.146512  	0.369291 
594.075328  	0.367128 
596.004144  	0.364825 
597.932960  	0.362642 
599.861776  	0.362115 
601.790592  	0.361674 
603.719408  	0.360115 
605.648224  	0.358170 
607.577040  	0.357893 
609.505856  	0.357680 
611.434672  	0.357031 
613.363488  	0.354701 
615.292304  	0.353169 
617.221120  	0.351796 
619.149936  	0.350424 
621.078752  	0.347358 
623.007568  	0.344621 
624.936384  	0.342649 
626.865200  	0.341764 
628.794016  	0.340836 
630.722832  	0.339830 
632.651648  	0.338661 
634.580464  	0.338318 
636.509280  	0.339809 
638.438096  	0.339852 
640.366912  	0.338700 
642.295728  	0.337390 
644.224544  	0.334310 
646.153360  	0.331425 
648.082176  	0.328518 
650.010992  	0.325568 
651.939808  	0.321881 
653.868624  	0.318319 
655.797440  	0.314286 
657.726256  	0.311066 
659.655072  	0.307252 
661.583888  	0.303617 
663.512704  	0.299858 
665.441520  	0.296440 
667.370336  	0.292751 
669.299152  	0.289634 
671.227968  	0.286919 
673.156784  	0.284456 
675.085600  	0.282187 
677.014416  	0.280395 
678.943232  	0.279112 
680.872048  	0.277191 
682.800864  	0.275562 
684.729680  	0.274517 
686.658496  	0.272624 
688.587312  	0.270716 
690.516128  	0.268992 
692.444944  	0.268026 
694.373760  	0.266486 
696.302576  	0.264654 
698.231392  	0.262541 
700.160208  	0.259775 
702.089024  	0.257019 
704.017840  	0.255622 
705.946656  	0.253209 
707.875472  	0.250532 
709.804288  	0.248593 
711.733104  	0.247105 
713.661920  	0.245564 
715.590736  	0.244912 
717.519552  	0.244994 
719.448368  	0.245678 
721.377184  	0.246707 
723.306000  	0.247379 
725.234816  	0.247402 
727.163632  	0.246063 
729.092448  	0.243764 
731.021264  	0.241151 
732.950080  	0.238573 
734.878896  	0.235777 
736.807712  	0.232831 
738.736528  	0.231111 
740.665344  	0.229864 
742.594160  	0.228792 
744.522976  	0.227444 
746.451792  	0.226339 
748.380608  	0.225105 
750.309424  	0.224168 
752.238240  	0.223630 
754.167056  	0.223445 
756.095872  	0.223140 
758.024688  	0.222457 
759.953504  	0.221856 
761.882320  	0.221685 
763.811136  	0.222356 
765.739952  	0.222407 
767.668768  	0.221348 
769.597584  	0.220045 
771.526400  	0.220017 
773.455216  	0.221980 
775.384032  	0.224946 
777.312848  	0.228928 
779.241664  	0.232952 
781.170480  	0.233836 
783.099296  	0.230749 
785.028112  	0.225670 
786.956928  	0.219800 
788.885744  	0.214965 
790.814560  	0.211301 
792.743376  	0.208886 
794.672192  	0.207033 
796.601008  	0.206298 
798.529824  	0.204728 
800.458640  	0.201366 
802.387456  	0.198159 
804.316272  	0.196599 
806.245088  	0.196317 
808.173904  	0.196193 
810.102720  	0.196091 
812.031536  	0.196174 
813.960352  	0.196186 
815.889168  	0.196313 
817.817984  	0.196579 
819.746800  	0.196535 
821.675616  	0.196011 
823.604432  	0.195691 
825.533248  	0.194980 
827.462064  	0.193888 
829.390880  	0.192910 
831.319696  	0.191879 
833.248512  	0.190227 
835.177328  	0.188477 
837.106144  	0.186094 
839.034960  	0.183362 
840.963776  	0.180538 
842.892592  	0.177829 
844.821408  	0.175066 
846.750224  	0.172656 
848.679040  	0.170699 
850.607856  	0.168542 
852.536672  	0.166799 
854.465488  	0.165319 
856.394304  	0.164090 
858.323120  	0.162939 
860.251936  	0.161596 
862.180752  	0.159818 
864.109568  	0.158008 
866.038384  	0.156577 
867.967200  	0.155034 
869.896016  	0.153833 
871.824832  	0.152834 
873.753648  	0.152177 
875.682464  	0.152184 
877.611280  	0.152784 
879.540096  	0.153371 
881.468912  	0.154219 
883.397728  	0.154908 
885.326544  	0.155247 
887.255360  	0.155122 
889.184176  	0.154512 
891.112992  	0.153629 
893.041808  	0.152049 
894.970624  	0.149875 
896.899440  	0.147030 
898.828256  	0.143514 
900.757072  	0.140091 
902.685888  	0.137233 
904.614704  	0.135448 
906.543520  	0.135115 
908.472336  	0.136220 
910.401152  	0.138190 
912.329968  	0.141033 
914.258784  	0.144090 
916.187600  	0.146687 
918.116416  	0.148468 
920.045232  	0.149207 
921.974048  	0.148830 
923.902864  	0.148022 
925.831680  	0.146915 
927.760496  	0.146017 
929.689312  	0.145121 
931.618128  	0.144978 
933.546944  	0.145364 
935.475760  	0.145453 
937.404576  	0.145638 
939.333392  	0.146330 
941.262208  	0.147558 
943.191024  	0.149722 
945.119840  	0.153511 
947.048656  	0.158415 
948.977472  	0.164523 
950.906288  	0.171460 
952.835104  	0.178740 
954.763920  	0.186198 
956.692736  	0.193025 
958.621552  	0.198499 
960.550368  	0.201779 
962.479184  	0.203036 
964.408000  	0.201371 
966.336816  	0.197161 
968.265632  	0.190614 
970.194448  	0.182547 
972.123264  	0.173105 
974.052080  	0.163191 
975.980896  	0.153610 
977.909712  	0.144715 
979.838528  	0.137186 
981.767344  	0.131171 
983.696160  	0.127215 
985.624976  	0.125269 
987.553792  	0.125622 
989.482608  	0.128053 
991.411424  	0.132209 
993.340240  	0.138013 
995.269056  	0.145096 
997.197872  	0.152578 
999.126688  	0.159626 
1001.055504  	0.166950 
1002.984320  	0.174141 
1004.913136  	0.181052 
1006.841952  	0.187017 
1008.770768  	0.192078 
1010.699584  	0.195875 
1012.628400  	0.198288 
1014.557216  	0.199608 
1016.486032  	0.200476 
1018.414848  	0.201109 
1020.343664  	0.201618 
1022.272480  	0.202008 
1024.201296  	0.202309 
1026.130112  	0.202121 
1028.058928  	0.202776 
1029.987744  	0.204018 
1031.916560  	0.205880 
1033.845376  	0.208404 
1035.774192  	0.211501 
1037.703008  	0.215481 
1039.631824  	0.221196 
1041.560640  	0.228227 
1043.489456  	0.237513 
1045.418272  	0.248693 
1047.347088  	0.261798 
1049.275904  	0.275102 
1051.204720  	0.288293 
1053.133536  	0.298758 
1055.062352  	0.306885 
1056.991168  	0.311678 
1058.919984  	0.314120 
1060.848800  	0.314054 
1062.777616  	0.312614 
1064.706432  	0.308995 
1066.635248  	0.304803 
1068.564064  	0.299673 
1070.492880  	0.293747 
1072.421696  	0.287192 
1074.350512  	0.281762 
1076.279328  	0.277018 
1078.208144  	0.273494 
1080.136960  	0.270895 
1082.065776  	0.268596 
1083.994592  	0.265299 
1085.923408  	0.262339 
1087.852224  	0.258668 
1089.781040  	0.254262 
1091.709856  	0.248290 
1093.638672  	0.241343 
1095.567488  	0.232659 
1097.496304  	0.223484 
1099.425120  	0.213775 
1101.353936  	0.204122 
1103.282752  	0.194061 
1105.211568  	0.183883 
1107.140384  	0.173957 
1109.069200  	0.164107 
1110.998016  	0.154666 
1112.926832  	0.146041 
1114.855648  	0.137610 
1116.784464  	0.129401 
1118.713280  	0.122160 
1120.642096  	0.115490 
1122.570912  	0.109055 
1124.499728  	0.103137 
1126.428544  	0.097365 
1128.357360  	0.091994 
1130.286176  	0.087296 
1132.214992  	0.083422 
1134.143808  	0.079975 
1136.072624  	0.076760 
1138.001440  	0.073641 
1139.930256  	0.070766 
1141.859072  	0.068088 
1143.787888  	0.065545 
1145.716704  	0.063505 
1147.645520  	0.061683 
1149.574336  	0.060375 
1151.503152  	0.059632 
1153.431968  	0.059415 
1155.360784  	0.059306 
1157.289600  	0.059797 
1159.218416  	0.060713 
1161.147232  	0.062161 
1163.076048  	0.063662 
1165.004864  	0.065404 
1166.933680  	0.067248 
1168.862496  	0.069395 
1170.791312  	0.071814 
1172.720128  	0.074158 
1174.648944  	0.076599 
1176.577760  	0.079370 
1178.506576  	0.082159 
1180.435392  	0.084737 
1182.364208  	0.087316 
1184.293024  	0.090169 
1186.221840  	0.093143 
1188.150656  	0.096433 
1190.079472  	0.100230 
1192.008288  	0.104707 
1193.937104  	0.109828 
1195.865920  	0.115577 
1197.794736  	0.121733 
1199.723552  	0.128499 
1201.652368  	0.135669 
1203.581184  	0.142812 
1205.510000  	0.149721 
1207.438816  	0.156861 
1209.367632  	0.163819 
1211.296448  	0.170030 
1213.225264  	0.176069 
1215.154080  	0.180940 
1217.082896  	0.184800 
1219.011712  	0.187854 
1220.940528  	0.190762 
1222.869344  	0.192888 
1224.798160  	0.194447 
1226.726976  	0.195319 
1228.655792  	0.195649 
1230.584608  	0.195407 
1232.513424  	0.194395 
1234.442240  	0.192169 
1236.371056  	0.189279 
1238.299872  	0.185357 
1240.228688  	0.180596 
1242.157504  	0.175078 
1244.086320  	0.169223 
1246.015136  	0.162593 
1247.943952  	0.155773 
1249.872768  	0.149003 
1251.801584  	0.142486 
1253.730400  	0.135940 
1255.659216  	0.129584 
1257.588032  	0.123345 
1259.516848  	0.117446 
1261.445664  	0.111938 
1263.374480  	0.107099 
1265.303296  	0.102587 
1267.232112  	0.098828 
1269.160928  	0.096029 
1271.089744  	0.094019 
1273.018560  	0.092907 
1274.947376  	0.092406 
1276.876192  	0.091920 
1278.805008  	0.090956 
1280.733824  	0.089333 
1282.662640  	0.086505 
1284.591456  	0.082853 
1286.520272  	0.079172 
1288.449088  	0.076296 
1290.377904  	0.074099 
1292.306720  	0.072173 
1294.235536  	0.069955 
1296.164352  	0.067018 
1298.093168  	0.063742 
1300.021984  	0.060334 
1301.950800  	0.057044 
1303.879616  	0.054284 
1305.808432  	0.052052 
1307.737248  	0.050217 
1309.666064  	0.048631 
1311.594880  	0.047592 
1313.523696  	0.047054 
1315.452512  	0.046823 
1317.381328  	0.046945 
1319.310144  	0.047545 
1321.238960  	0.048492 
1323.167776  	0.049463 
1325.096592  	0.050048 
1327.025408  	0.050189 
1328.954224  	0.049804 
1330.883040  	0.049177 
1332.811856  	0.048316 
1334.740672  	0.047420 
1336.669488  	0.046458 
1338.598304  	0.045761 
1340.527120  	0.045456 
1342.455936  	0.045088 
1344.384752  	0.044940 
1346.313568  	0.045478 
1348.242384  	0.046669 
1350.171200  	0.048341 
1352.100016  	0.050215 
1354.028832  	0.052131 
1355.957648  	0.054286 
1357.886464  	0.056266 
1359.815280  	0.057739 
1361.744096  	0.059358 
1363.672912  	0.061560 
1365.601728  	0.062779 
1367.530544  	0.063227 
1369.459360  	0.063580 
1371.388176  	0.062832 
1373.316992  	0.061468 
1375.245808  	0.060385 
1377.174624  	0.058924 
1379.103440  	0.057095 
1381.032256  	0.055342 
1382.961072  	0.053890 
1384.889888  	0.052599 
1386.818704  	0.051722 
1388.747520  	0.051062 
1390.676336  	0.049566 
1392.605152  	0.047731 
1394.533968  	0.047093 
1396.462784  	0.047722 
1398.391600  	0.047929 
1400.320416  	0.049245 
1402.249232  	0.049671 
1404.178048  	0.050565 
1406.106864  	0.052305 
1408.035680  	0.053984 
1409.964496  	0.055667 
1411.893312  	0.057884 
1413.822128  	0.059550 
1415.750944  	0.060437 
1417.679760  	0.060490 
1419.608576  	0.061666 
1421.537392  	0.061461 
1423.466208  	0.060024 
1425.395024  	0.058965 
1427.323840  	0.056856 
1429.252656  	0.054774 
1431.181472  	0.053832 
1433.110288  	0.053239 
1435.039104  	0.052368 
1436.967920  	0.053859 
1438.896736  	0.055210 
1440.825552  	0.055226 
1442.754368  	0.055673 
1444.683184  	0.055523 
1446.612000  	0.055175 
1448.540816  	0.055749 
1450.469632  	0.056189 
1452.398448  	0.055975 
1454.327264  	0.055000 
1456.256080  	0.053995 
1458.184896  	0.056341 
1460.113712  	0.057365 
1462.042528  	0.057205 
1463.971344  	0.057148 
1465.900160  	0.059852 
1467.828976  	0.061969 
1469.757792  	0.063331 
1471.686608  	0.065448 
1473.615424  	0.071541 
1475.544240  	0.075490 
1477.473056  	0.078676 
1479.401872  	0.079853 
1481.330688  	0.080464 
1483.259504  	0.080524 
1485.188320  	0.079262 
1487.117136  	0.077043 
1489.045952  	0.074997 
1490.974768  	0.073070 
1492.903584  	0.070133 
1494.832400  	0.065773 
1496.761216  	0.061884 
1498.690032  	0.059023 
1500.618848  	0.056794 
1502.547664  	0.053675 
1504.476480  	0.049239 
1506.405296  	0.046418 
1508.334112  	0.048555 
1510.262928  	0.047695 
1512.191744  	0.046495 
1514.120560  	0.044972 
1516.049376  	0.043916 
1517.978192  	0.044684 
1519.907008  	0.044556 
1521.835824  	0.047578 
1523.764640  	0.051070 
1525.693456  	0.053490 
1527.622272  	0.056383 
1529.551088  	0.057634 
1531.479904  	0.056980 
1533.408720  	0.056389 
1535.337536  	0.056152 
1537.266352  	0.052098 
1539.195168  	0.047234 
1541.123984  	0.046468 
1543.052800  	0.046997 
1544.981616  	0.046808 
1546.910432  	0.046158 
1548.839248  	0.044751 
1550.768064  	0.045098 
1552.696880  	0.044468 
1554.625696  	0.044723 
1556.554512  	0.043026 
1558.483328  	0.042655 
1560.412144  	0.051847 
1562.340960  	0.054274 
1564.269776  	0.055864 
1566.198592  	0.059629 
1568.127408  	0.061853 
1570.056224  	0.067730 
1571.985040  	0.072633 
1573.913856  	0.073710 
1575.842672  	0.075417 
1577.771488  	0.079488 
1579.700304  	0.079413 
1581.629120  	0.079237 
1583.557936  	0.079487 
1585.486752  	0.081089 
1587.415568  	0.083585 
1589.344384  	0.087670 
1591.273200  	0.092418 
1593.202016  	0.097962 
1595.130832  	0.103370 
1597.059648  	0.108705 
1598.988464  	0.112627 
1600.917280  	0.115919 
1602.846096  	0.117702 
1604.774912  	0.118684 
1606.703728  	0.118140 
1608.632544  	0.117708 
1610.561360  	0.117080 
1612.490176  	0.116653 
1614.418992  	0.115009 
1616.347808  	0.116034 
1618.276624  	0.120773 
1620.205440  	0.123872 
1622.134256  	0.126857 
1624.063072  	0.134512 
1625.991888  	0.140775 
1627.920704  	0.147748 
1629.849520  	0.155981 
1631.778336  	0.162118 
1633.707152  	0.165579 
1635.635968  	0.172763 
1637.564784  	0.181865 
1639.493600  	0.186086 
1641.422416  	0.189240 
1643.351232  	0.190672 
1645.280048  	0.190146 
1647.208864  	0.192075 
1649.137680  	0.193053 
1651.066496  	0.189528 
1652.995312  	0.187102 
1654.924128  	0.190577 
1656.852944  	0.188594 
1658.781760  	0.186254 
1660.710576  	0.183570 
1662.639392  	0.181831 
1664.568208  	0.180912 
1666.497024  	0.178268 
1668.425840  	0.175185 
1670.354656  	0.174491 
1672.283472  	0.173567 
1674.212288  	0.171825 
1676.141104  	0.172903 
1678.069920  	0.172984 
1679.998736  	0.172187 
1681.927552  	0.170465 
1683.856368  	0.169633 
1685.785184  	0.173354 
1687.714000  	0.172244 
1689.642816  	0.170740 
1691.571632  	0.168858 
1693.500448  	0.165249 
1695.429264  	0.160991 
1697.358080  	0.157782 
1699.286896  	0.152864 
1701.215712  	0.150474 
1703.144528  	0.146415 
1705.073344  	0.140972 
1707.002160  	0.136351 
1708.930976  	0.131599 
1710.859792  	0.125985 
1712.788608  	0.119336 
1714.717424  	0.112166 
1716.646240  	0.104909 
1718.575056  	0.099157 
1720.503872  	0.093402 
1722.432688  	0.087122 
1724.361504  	0.080477 
1726.290320  	0.074327 
1728.219136  	0.068067 
1730.147952  	0.062380 
1732.076768  	0.056309 
1734.005584  	0.051576 
1735.934400  	0.047850 
1737.863216  	0.043324 
1739.792032  	0.038951 
1741.720848  	0.036076 
1743.649664  	0.032998 
1745.578480  	0.030023 
1747.507296  	0.026804 
1749.436112  	0.024991 
1751.364928  	0.024441 
1753.293744  	0.023821 
1755.222560  	0.021629 
1757.151376  	0.020939 
1759.080192  	0.019736 
1761.009008  	0.018849 
1762.937824  	0.019078 
1764.866640  	0.018521 
1766.795456  	0.017107 
1768.724272  	0.016966 
1770.653088  	0.015110 
1772.581904  	0.015470 
1774.510720  	0.016455 
1776.439536  	0.016542 
1778.368352  	0.016018 
1780.297168  	0.016029 
1782.225984  	0.015996 
1784.154800  	0.015716 
1786.083616  	0.015782 
1788.012432  	0.015290 
1789.941248  	0.013909 
1791.870064  	0.013791 
1793.798880  	0.014740 
1795.727696  	0.014922 
1797.656512  	0.014377 
1799.585328  	0.013918 
1801.514144  	0.014135 
1803.442960  	0.014139 
1805.371776  	0.013771 
1807.300592  	0.013598 
1809.229408  	0.012980 
1811.158224  	0.013070 
1813.087040  	0.013125 
1815.015856  	0.012836 
1816.944672  	0.012673 
1818.873488  	0.013215 
1820.802304  	0.013182 
1822.731120  	0.012710 
1824.659936  	0.012424 
1826.588752  	0.012877 
1828.517568  	0.012064 
1830.446384  	0.013143 
1832.375200  	0.013608 
1834.304016  	0.013124 
1836.232832  	0.012946 
1838.161648  	0.013419 
1840.090464  	0.013152 
1842.019280  	0.012231 
1843.948096  	0.012080 
1845.876912  	0.013192 
1847.805728  	0.013098 
1849.734544  	0.013330 
1851.663360  	0.013053 
1853.592176  	0.013142 
1855.520992  	0.013136 
1857.449808  	0.013541 
1859.378624  	0.013321 
1861.307440  	0.013151 
1863.236256  	0.012677 
1865.165072  	0.012390 
1867.093888  	0.011807 
1869.022704  	0.012676 
1870.951520  	0.013244 
1872.880336  	0.013193 
1874.809152  	0.012728 
1876.737968  	0.012682 
1878.666784  	0.012454 
1880.595600  	0.012527 
1882.524416  	0.012603 
1884.453232  	0.012671 
1886.382048  	0.012380 
1888.310864  	0.012365 
1890.239680  	0.013194 
1892.168496  	0.013387 
1894.097312  	0.012489 
1896.026128  	0.012920 
1897.954944  	0.012936 
1899.883760  	0.012833 
1901.812576  	0.012666 
1903.741392  	0.012955 
1905.670208  	0.012714 
1907.599024  	0.012724 
1909.527840  	0.012541 
1911.456656  	0.012773 
1913.385472  	0.012566 
1915.314288  	0.012677 
1917.243104  	0.012575 
1919.171920  	0.012882 
1921.100736  	0.012392 
1923.029552  	0.012685 
1924.958368  	0.012523 
1926.887184  	0.012897 
1928.816000  	0.012730 
1930.744816  	0.012404 
1932.673632  	0.012108 
1934.602448  	0.012501 
1936.531264  	0.012672 
1938.460080  	0.012561 
1940.388896  	0.011873 
1942.317712  	0.012057 
1944.246528  	0.012330 
1946.175344  	0.012811 
1948.104160  	0.011946 
1950.032976  	0.011697 
1951.961792  	0.011802 
1953.890608  	0.012173 
1955.819424  	0.011410 
1957.748240  	0.011297 
1959.677056  	0.011368 
1961.605872  	0.011658 
1963.534688  	0.011590 
1965.463504  	0.012609 
1967.392320  	0.012096 
1969.321136  	0.011769 
1971.249952  	0.012468 
1973.178768  	0.013832 
1975.107584  	0.012681 
1977.036400  	0.012980 
1978.965216  	0.015322 
1980.894032  	0.015361 
1982.822848  	0.013349 
1984.751664  	0.013146 
1986.680480  	0.012653 
1988.609296  	0.012772 
1990.538112  	0.012699 
1992.466928  	0.013322 
1994.395744  	0.012768 
1996.324560  	0.012481 
1998.253376  	0.011910 
2000.182192  	0.012122 
2002.111008  	0.012416 
2004.039824  	0.012186 
2005.968640  	0.011500 
2007.897456  	0.012670 
2009.826272  	0.013060 
2011.755088  	0.012520 
2013.683904  	0.012407 
2015.612720  	0.013607 
2017.541536  	0.013197 
2019.470352  	0.012839 
2021.399168  	0.013227 
2023.327984  	0.014015 
2025.256800  	0.013737 
2027.185616  	0.014007 
2029.114432  	0.013541 
2031.043248  	0.014276 
2032.972064  	0.014216 
2034.900880  	0.015612 
2036.829696  	0.015301 
2038.758512  	0.013922 
2040.687328  	0.012361 
2042.616144  	0.012524 
2044.544960  	0.013149 
2046.473776  	0.013657 
2048.402592  	0.013533 
2050.331408  	0.014627 
2052.260224  	0.013845 
2054.189040  	0.013088 
2056.117856  	0.012420 
2058.046672  	0.012545 
2059.975488  	0.012806 
2061.904304  	0.012867 
2063.833120  	0.013357 
2065.761936  	0.014145 
2067.690752  	0.013431 
2069.619568  	0.013079 
2071.548384  	0.012385 
2073.477200  	0.012452 
2075.406016  	0.013264 
2077.334832  	0.013723 
2079.263648  	0.013058 
2081.192464  	0.013404 
2083.121280  	0.013695 
2085.050096  	0.013258 
2086.978912  	0.013060 
2088.907728  	0.013446 
2090.836544  	0.012892 
2092.765360  	0.012522 
2094.694176  	0.012652 
2096.622992  	0.012507 
2098.551808  	0.012244 
2100.480624  	0.012764 
2102.409440  	0.012606 
2104.338256  	0.012792 
2106.267072  	0.013034 
2108.195888  	0.013055 
2110.124704  	0.013406 
2112.053520  	0.014014 
2113.982336  	0.013480 
2115.911152  	0.013126 
2117.839968  	0.012784 
2119.768784  	0.012645 
2121.697600  	0.012650 
2123.626416  	0.012366 
2125.555232  	0.012042 
2127.484048  	0.012142 
2129.412864  	0.011617 
2131.341680  	0.010692 
2133.270496  	0.010895 
2135.199312  	0.011803 
2137.128128  	0.012707 
2139.056944  	0.012644 
2140.985760  	0.011592 
2142.914576  	0.011997 
2144.843392  	0.012305 
2146.772208  	0.012908 
2148.701024  	0.012633 
2150.629840  	0.013167 
2152.558656  	0.012112 
2154.487472  	0.011364 
2156.416288  	0.010754 
2158.345104  	0.013376 
2160.273920  	0.017182 
2162.202736  	0.017448 
2164.131552  	0.015830 
2166.060368  	0.017166 
2167.989184  	0.015768 
2169.918000  	0.013919 
2171.846816  	0.013768 
2173.775632  	0.013792 
2175.704448  	0.013222 
2177.633264  	0.013512 
2179.562080  	0.013735 
2181.490896  	0.014069 
2183.419712  	0.013894 
2185.348528  	0.014468 
2187.277344  	0.014673 
2189.206160  	0.014751 
2191.134976  	0.015181 
2193.063792  	0.016361 
2194.992608  	0.016268 
2196.921424  	0.015093 
2198.850240  	0.014773 
2200.779056  	0.014922 
2202.707872  	0.014540 
2204.636688  	0.014994 
2206.565504  	0.015679 
2208.494320  	0.015619 
2210.423136  	0.014172 
2212.351952  	0.013864 
2214.280768  	0.014319 
2216.209584  	0.014792 
2218.138400  	0.014700 
2220.067216  	0.014527 
2221.996032  	0.014307 
2223.924848  	0.013867 
2225.853664  	0.014193 
2227.782480  	0.015035 
2229.711296  	0.015402 
2231.640112  	0.015623 
2233.568928  	0.014878 
2235.497744  	0.014459 
2237.426560  	0.014233 
2239.355376  	0.014362 
2241.284192  	0.014185 
2243.213008  	0.014289 
2245.141824  	0.014397 
2247.070640  	0.013977 
2248.999456  	0.013592 
2250.928272  	0.013942 
2252.857088  	0.014192 
2254.785904  	0.014295 
2256.714720  	0.014879 
2258.643536  	0.015396 
2260.572352  	0.014885 
2262.501168  	0.014793 
2264.429984  	0.014550 
2266.358800  	0.014460 
2268.287616  	0.014566 
2270.216432  	0.014937 
2272.145248  	0.014766 
2274.074064  	0.014838 
2276.002880  	0.014561 
2277.931696  	0.015245 
2279.860512  	0.016035 
2281.789328  	0.016241 
2283.718144  	0.016137 
2285.646960  	0.016218 
2287.575776  	0.016240 
2289.504592  	0.016077 
2291.433408  	0.015866 
2293.362224  	0.015965 
2295.291040  	0.016230 
2297.219856  	0.016348 
2299.148672  	0.016157 
2301.077488  	0.016314 
2303.006304  	0.016474 
2304.935120  	0.016503 
2306.863936  	0.016523 
2308.792752  	0.016566 
2310.721568  	0.016794 
2312.650384  	0.016915 
2314.579200  	0.016685 
2316.508016  	0.016585 
2318.436832  	0.016441 
2320.365648  	0.016595 
2322.294464  	0.017012 
2324.223280  	0.016909 
2326.152096  	0.015381 
2328.080912  	0.014255 
2330.009728  	0.013833 
2331.938544  	0.013590 
2333.867360  	0.012805 
2335.796176  	0.012265 
2337.724992  	0.012126 
2339.653808  	0.012292 
2341.582624  	0.012725 
2343.511440  	0.013970 
2345.440256  	0.015329 
2347.369072  	0.015961 
2349.297888  	0.014569 
2351.226704  	0.012935 
2353.155520  	0.012396 
2355.084336  	0.011903 
2357.013152  	0.011758 
2358.941968  	0.011912 
2360.870784  	0.011386 
2362.799600  	0.011537 
2364.728416  	0.012359 
2366.657232  	0.013567 
2368.586048  	0.014028 
2370.514864  	0.014570 
2372.443680  	0.015436 
2374.372496  	0.016390 
2376.301312  	0.016786 
2378.230128  	0.017131 
2380.158944  	0.017028 
2382.087760  	0.016662 
2384.016576  	0.016345 
2385.945392  	0.015991 
2387.874208  	0.015533 
2389.803024  	0.015246 
2391.731840  	0.015252 
2393.660656  	0.015414 
2395.589472  	0.015642 
2397.518288  	0.015574 
2399.447104  	0.015425 
2401.375920  	0.015403 
2403.304736  	0.015560 
2405.233552  	0.015833 
2407.162368  	0.016076 
2409.091184  	0.016078 
2411.020000  	0.016012 
2412.948816  	0.016250 
2414.877632  	0.016251 
2416.806448  	0.016274 
2418.735264  	0.016365 
2420.664080  	0.016226 
2422.592896  	0.016014 
2424.521712  	0.016071 
2426.450528  	0.016065 
2428.379344  	0.016027 
2430.308160  	0.016096 
2432.236976  	0.016373 
2434.165792  	0.016725 
2436.094608  	0.016939 
2438.023424  	0.016946 
2439.952240  	0.017064 
2441.881056  	0.017262 
2443.809872  	0.017188 
2445.738688  	0.017048 
2447.667504  	0.017218 
2449.596320  	0.017394 
2451.525136  	0.017430 
2453.453952  	0.017433 
2455.382768  	0.017695 
2457.311584  	0.017782 
2459.240400  	0.017664 
2461.169216  	0.017486 
2463.098032  	0.017471 
2465.026848  	0.017490 
2466.955664  	0.017458 
2468.884480  	0.017334 
2470.813296  	0.017447 
2472.742112  	0.017558 
2474.670928  	0.017695 
2476.599744  	0.017788 
2478.528560  	0.017734 
2480.457376  	0.017919 
2482.386192  	0.017987 
2484.315008  	0.018100 
2486.243824  	0.018139 
2488.172640  	0.018066 
2490.101456  	0.018190 
2492.030272  	0.018307 
2493.959088  	0.018268 
2495.887904  	0.018150 
2497.816720  	0.018416 
2499.745536  	0.018650 
2501.674352  	0.018799 
2503.603168  	0.018796 
2505.531984  	0.018802 
2507.460800  	0.018694 
2509.389616  	0.018660 
2511.318432  	0.018646 
2513.247248  	0.018804 
2515.176064  	0.018916 
2517.104880  	0.019258 
2519.033696  	0.019360 
2520.962512  	0.019184 
2522.891328  	0.019444 
2524.820144  	0.019660 
2526.748960  	0.019608 
2528.677776  	0.019660 
2530.606592  	0.019587 
2532.535408  	0.019532 
2534.464224  	0.019806 
2536.393040  	0.020040 
2538.321856  	0.019826 
2540.250672  	0.019839 
2542.179488  	0.020075 
2544.108304  	0.020352 
2546.037120  	0.020184 
2547.965936  	0.020423 
2549.894752  	0.020619 
2551.823568  	0.020645 
2553.752384  	0.020625 
2555.681200  	0.020651 
2557.610016  	0.020932 
2559.538832  	0.021071 
2561.467648  	0.021025 
2563.396464  	0.021194 
2565.325280  	0.021387 
2567.254096  	0.021384 
2569.182912  	0.021319 
2571.111728  	0.021331 
2573.040544  	0.021251 
2574.969360  	0.021426 
2576.898176  	0.021725 
2578.826992  	0.022070 
2580.755808  	0.022220 
2582.684624  	0.022226 
2584.613440  	0.022136 
2586.542256  	0.022381 
2588.471072  	0.022598 
2590.399888  	0.022498 
2592.328704  	0.022423 
2594.257520  	0.022560 
2596.186336  	0.022857 
2598.115152  	0.023060 
2600.043968  	0.022995 
2601.972784  	0.023077 
2603.901600  	0.023245 
2605.830416  	0.023296 
2607.759232  	0.023160 
2609.688048  	0.023292 
2611.616864  	0.023571 
2613.545680  	0.023801 
2615.474496  	0.023778 
2617.403312  	0.023856 
2619.332128  	0.024035 
2621.260944  	0.024129 
2623.189760  	0.024224 
2625.118576  	0.024315 
2627.047392  	0.024349 
2628.976208  	0.024668 
2630.905024  	0.024910 
2632.833840  	0.025088 
2634.762656  	0.025179 
2636.691472  	0.025190 
2638.620288  	0.025277 
2640.549104  	0.025435 
2642.477920  	0.025524 
2644.406736  	0.025556 
2646.335552  	0.025802 
2648.264368  	0.025967 
2650.193184  	0.026098 
2652.122000  	0.026340 
2654.050816  	0.026558 
2655.979632  	0.026522 
2657.908448  	0.026468 
2659.837264  	0.026561 
2661.766080  	0.026557 
2663.694896  	0.026562 
2665.623712  	0.026440 
2667.552528  	0.026392 
2669.481344  	0.026642 
2671.410160  	0.026969 
2673.338976  	0.027109 
2675.267792  	0.027170 
2677.196608  	0.027264 
2679.125424  	0.027470 
2681.054240  	0.027581 
2682.983056  	0.027583 
2684.911872  	0.027762 
2686.840688  	0.028001 
2688.769504  	0.028138 
2690.698320  	0.028143 
2692.627136  	0.028226 
2694.555952  	0.028350 
2696.484768  	0.028392 
2698.413584  	0.028477 
2700.342400  	0.028533 
2702.271216  	0.028720 
2704.200032  	0.029005 
2706.128848  	0.029204 
2708.057664  	0.029330 
2709.986480  	0.029439 
2711.915296  	0.029522 
2713.844112  	0.029664 
2715.772928  	0.029783 
2717.701744  	0.029920 
2719.630560  	0.029965 
2721.559376  	0.030118 
2723.488192  	0.030314 
2725.417008  	0.030488 
2727.345824  	0.030589 
2729.274640  	0.030680 
2731.203456  	0.030831 
2733.132272  	0.030980 
2735.061088  	0.031173 
2736.989904  	0.031275 
2738.918720  	0.031354 
2740.847536  	0.031392 
2742.776352  	0.031450 
2744.705168  	0.031576 
2746.633984  	0.031713 
2748.562800  	0.031923 
2750.491616  	0.032061 
2752.420432  	0.032094 
2754.349248  	0.032122 
2756.278064  	0.032249 
2758.206880  	0.032330 
2760.135696  	0.032444 
2762.064512  	0.032478 
2763.993328  	0.032500 
2765.922144  	0.032561 
2767.850960  	0.032612 
2769.779776  	0.032641 
2771.708592  	0.032751 
2773.637408  	0.032810 
2775.566224  	0.032907 
2777.495040  	0.032945 
2779.423856  	0.032979 
2781.352672  	0.033123 
2783.281488  	0.033237 
2785.210304  	0.033302 
2787.139120  	0.033467 
2789.067936  	0.033580 
2790.996752  	0.033725 
2792.925568  	0.033956 
2794.854384  	0.034096 
2796.783200  	0.034149 
2798.712016  	0.034057 
2800.640832  	0.034114 
2802.569648  	0.034279 
2804.498464  	0.034402 
2806.427280  	0.034482 
2808.356096  	0.034525 
2810.284912  	0.034644 
2812.213728  	0.034666 
2814.142544  	0.034669 
2816.071360  	0.034886 
2818.000176  	0.034973 
2819.928992  	0.034867 
2821.857808  	0.034887 
2823.786624  	0.035028 
2825.715440  	0.035134 
2827.644256  	0.035071 
2829.573072  	0.035036 
2831.501888  	0.034988 
2833.430704  	0.034913 
2835.359520  	0.034811 
2837.288336  	0.034760 
2839.217152  	0.034829 
2841.145968  	0.034777 
2843.074784  	0.034734 
2845.003600  	0.034924 
2846.932416  	0.035286 
2848.861232  	0.035699 
2850.790048  	0.035797 
2852.718864  	0.035515 
2854.647680  	0.035281 
2856.576496  	0.035202 
2858.505312  	0.035077 
2860.434128  	0.035082 
2862.362944  	0.035093 
2864.291760  	0.035021 
2866.220576  	0.034968 
2868.149392  	0.035244 
2870.078208  	0.035696 
2872.007024  	0.035995 
2873.935840  	0.036339 
2875.864656  	0.036811 
2877.793472  	0.037431 
2879.722288  	0.037815 
2881.651104  	0.038183 
2883.579920  	0.038453 
2885.508736  	0.038682 
2887.437552  	0.038983 
2889.366368  	0.039127 
2891.295184  	0.039254 
2893.224000  	0.039416 
2895.152816  	0.039516 
2897.081632  	0.039338 
2899.010448  	0.039118 
2900.939264  	0.039350 
2902.868080  	0.039795 
2904.796896  	0.040088 
2906.725712  	0.040324 
2908.654528  	0.040618 
2910.583344  	0.041125 
2912.512160  	0.041843 
2914.440976  	0.042594 
2916.369792  	0.043217 
2918.298608  	0.043687 
2920.227424  	0.044240 
2922.156240  	0.044831 
2924.085056  	0.045231 
2926.013872  	0.045610 
2927.942688  	0.046183 
2929.871504  	0.046862 
2931.800320  	0.047326 
2933.729136  	0.047644 
2935.657952  	0.047928 
2937.586768  	0.048366 
2939.515584  	0.048814 
2941.444400  	0.049104 
2943.373216  	0.049285 
2945.302032  	0.049424 
2947.230848  	0.049562 
2949.159664  	0.049593 
2951.088480  	0.049353 
2953.017296  	0.049228 
2954.946112  	0.049101 
2956.874928  	0.048908 
2958.803744  	0.048666 
2960.732560  	0.048407 
2962.661376  	0.048213 
2964.590192  	0.047890 
2966.519008  	0.047502 
2968.447824  	0.047240 
2970.376640  	0.047065 
2972.305456  	0.046714 
2974.234272  	0.046398 
2976.163088  	0.046169 
2978.091904  	0.046106 
2980.020720  	0.046146 
2981.949536  	0.046020 
2983.878352  	0.045664 
2985.807168  	0.045379 
2987.735984  	0.045527 
2989.664800  	0.045909 
2991.593616  	0.046291 
2993.522432  	0.046291 
2995.451248  	0.046348 
2997.380064  	0.046581 
2999.308880  	0.046795 
3001.237696  	0.046968 
3003.166512  	0.047191 
3005.095328  	0.047573 
3007.024144  	0.048046 
3008.952960  	0.048343 
3010.881776  	0.048551 
3012.810592  	0.048865 
3014.739408  	0.049169 
3016.668224  	0.049543 
3018.597040  	0.049748 
3020.525856  	0.049952 
3022.454672  	0.050290 
3024.383488  	0.050653 
3026.312304  	0.050942 
3028.241120  	0.051052 
3030.169936  	0.051159 
3032.098752  	0.051622 
3034.027568  	0.051768 
3035.956384  	0.051807 
3037.885200  	0.052149 
3039.814016  	0.052544 
3041.742832  	0.052895 
3043.671648  	0.053177 
3045.600464  	0.053426 
3047.529280  	0.053646 
3049.458096  	0.053919 
3051.386912  	0.054129 
3053.315728  	0.054314 
3055.244544  	0.054596 
3057.173360  	0.055197 
3059.102176  	0.055699 
3061.030992  	0.055977 
3062.959808  	0.056207 
3064.888624  	0.056592 
3066.817440  	0.057050 
3068.746256  	0.057468 
3070.675072  	0.057910 
3072.603888  	0.058459 
3074.532704  	0.058963 
3076.461520  	0.059242 
3078.390336  	0.059547 
3080.319152  	0.060079 
3082.247968  	0.060680 
3084.176784  	0.061069 
3086.105600  	0.061364 
3088.034416  	0.061773 
3089.963232  	0.062217 
3091.892048  	0.062556 
3093.820864  	0.062754 
3095.749680  	0.063118 
3097.678496  	0.063361 
3099.607312  	0.063878 
3101.536128  	0.064468 
3103.464944  	0.064959 
3105.393760  	0.065360 
3107.322576  	0.065602 
3109.251392  	0.065978 
3111.180208  	0.066352 
3113.109024  	0.066549 
3115.037840  	0.066690 
3116.966656  	0.066989 
3118.895472  	0.067375 
3120.824288  	0.067704 
3122.753104  	0.068083 
3124.681920  	0.068377 
3126.610736  	0.068359 
3128.539552  	0.068644 
3130.468368  	0.068930 
3132.397184  	0.069162 
3134.326000  	0.069280 
3136.254816  	0.069404 
3138.183632  	0.069782 
3140.112448  	0.069963 
3142.041264  	0.070151 
3143.970080  	0.070460 
3145.898896  	0.070702 
3147.827712  	0.071010 
3149.756528  	0.071393 
3151.685344  	0.071849 
3153.614160  	0.072282 
3155.542976  	0.072395 
3157.471792  	0.072635 
3159.400608  	0.073170 
3161.329424  	0.073587 
3163.258240  	0.073806 
3165.187056  	0.074033 
3167.115872  	0.074248 
3169.044688  	0.074404 
3170.973504  	0.074402 
3172.902320  	0.074486 
3174.831136  	0.074695 
3176.759952  	0.075072 
3178.688768  	0.075439 
3180.617584  	0.075525 
3182.546400  	0.075358 
3184.475216  	0.075593 
3186.404032  	0.075822 
3188.332848  	0.075798 
3190.261664  	0.076024 
3192.190480  	0.076024 
3194.119296  	0.075693 
3196.048112  	0.075594 
3197.976928  	0.076074 
3199.905744  	0.076162 
3201.834560  	0.076036 
3203.763376  	0.076123 
3205.692192  	0.075884 
3207.621008  	0.075460 
3209.549824  	0.075283 
3211.478640  	0.075291 
3213.407456  	0.075149 
3215.336272  	0.075183 
3217.265088  	0.075150 
3219.193904  	0.074880 
3221.122720  	0.074481 
3223.051536  	0.074141 
3224.980352  	0.074002 
3226.909168  	0.073700 
3228.837984  	0.073367 
3230.766800  	0.073423 
3232.695616  	0.073425 
3234.624432  	0.073183 
3236.553248  	0.073107 
3238.482064  	0.073099 
3240.410880  	0.072918 
3242.339696  	0.072729 
3244.268512  	0.072731 
3246.197328  	0.072769 
3248.126144  	0.072692 
3250.054960  	0.072837 
3251.983776  	0.072896 
3253.912592  	0.072848 
3255.841408  	0.072823 
3257.770224  	0.073104 
3259.699040  	0.073336 
3261.627856  	0.073345 
3263.556672  	0.073524 
3265.485488  	0.073608 
3267.414304  	0.073654 
3269.343120  	0.073720 
3271.271936  	0.073910 
3273.200752  	0.074114 
3275.129568  	0.074286 
3277.058384  	0.074356 
3278.987200  	0.074393 
3280.916016  	0.074525 
3282.844832  	0.074605 
3284.773648  	0.074666 
3286.702464  	0.074714 
3288.631280  	0.074814 
3290.560096  	0.075044 
3292.488912  	0.075329 
3294.417728  	0.075467 
3296.346544  	0.075698 
3298.275360  	0.075933 
3300.204176  	0.076227 
3302.132992  	0.076436 
3304.061808  	0.076622 
3305.990624  	0.076833 
3307.919440  	0.076894 
3309.848256  	0.076969 
3311.777072  	0.077133 
3313.705888  	0.077433 
3315.634704  	0.077827 
3317.563520  	0.078061 
3319.492336  	0.078236 
3321.421152  	0.078299 
3323.349968  	0.078338 
3325.278784  	0.078549 
3327.207600  	0.078725 
3329.136416  	0.078858 
3331.065232  	0.078679 
3332.994048  	0.078611 
3334.922864  	0.078743 
3336.851680  	0.078657 
3338.780496  	0.078646 
3340.709312  	0.078538 
3342.638128  	0.078338 
3344.566944  	0.078040 
3346.495760  	0.077888 
3348.424576  	0.077686 
3350.353392  	0.077471 
3352.282208  	0.077244 
3354.211024  	0.076989 
3356.139840  	0.076842 
3358.068656  	0.076623 
3359.997472  	0.076257 
3361.926288  	0.075920 
3363.855104  	0.075527 
3365.783920  	0.075141 
3367.712736  	0.075098 
3369.641552  	0.074848 
3371.570368  	0.074247 
3373.499184  	0.073852 
3375.428000  	0.073467 
3377.356816  	0.073226 
3379.285632  	0.073064 
3381.214448  	0.072823 
3383.143264  	0.072574 
3385.072080  	0.072465 
3387.000896  	0.072133 
3388.929712  	0.071689 
3390.858528  	0.071205 
3392.787344  	0.070925 
3394.716160  	0.070513 
3396.644976  	0.070269 
3398.573792  	0.070061 
3400.502608  	0.069396 
3402.431424  	0.068929 
3404.360240  	0.068678 
3406.289056  	0.068382 
3408.217872  	0.068092 
3410.146688  	0.067662 
3412.075504  	0.067400 
3414.004320  	0.067273 
3415.933136  	0.066693 
3417.861952  	0.066031 
3419.790768  	0.065836 
3421.719584  	0.065667 
3423.648400  	0.065210 
3425.577216  	0.064924 
3427.506032  	0.064627 
3429.434848  	0.064024 
3431.363664  	0.063671 
3433.292480  	0.063385 
3435.221296  	0.063124 
3437.150112  	0.062798 
3439.078928  	0.062505 
3441.007744  	0.062119 
3442.936560  	0.061954 
3444.865376  	0.061397 
3446.794192  	0.060667 
3448.723008  	0.060436 
3450.651824  	0.059836 
3452.580640  	0.059266 
3454.509456  	0.058808 
3456.438272  	0.058394 
3458.367088  	0.058031 
3460.295904  	0.057588 
3462.224720  	0.057011 
3464.153536  	0.056585 
3466.082352  	0.056348 
3468.011168  	0.055801 
3469.939984  	0.055054 
3471.868800  	0.054512 
3473.797616  	0.054096 
3475.726432  	0.053711 
3477.655248  	0.053082 
3479.584064  	0.052483 
3481.512880  	0.052165 
3483.441696  	0.051573 
3485.370512  	0.050809 
3487.299328  	0.050443 
3489.228144  	0.050129 
3491.156960  	0.049531 
3493.085776  	0.048966 
3495.014592  	0.048417 
3496.943408  	0.048143 
3498.872224  	0.047460 
3500.801040  	0.046767 
3502.729856  	0.046617 
3504.658672  	0.046399 
3506.587488  	0.045495 
3508.516304  	0.045029 
3510.445120  	0.045092 
3512.373936  	0.044759 
3514.302752  	0.044239 
3516.231568  	0.043817 
3518.160384  	0.043420 
3520.089200  	0.042888 
3522.018016  	0.042303 
3523.946832  	0.042257 
3525.875648  	0.041837 
3527.804464  	0.041359 
3529.733280  	0.041181 
3531.662096  	0.040662 
3533.590912  	0.040048 
3535.519728  	0.039879 
3537.448544  	0.039872 
3539.377360  	0.039275 
3541.306176  	0.038424 
3543.234992  	0.037611 
3545.163808  	0.037767 
3547.092624  	0.038129 
3549.021440  	0.037309 
3550.950256  	0.036381 
3552.879072  	0.036738 
3554.807888  	0.036759 
3556.736704  	0.035927 
3558.665520  	0.035372 
3560.594336  	0.035286 
3562.523152  	0.034280 
3564.451968  	0.032738 
3566.380784  	0.032683 
3568.309600  	0.034418 
3570.238416  	0.033911 
3572.167232  	0.032532 
3574.096048  	0.031832 
3576.024864  	0.031491 
3577.953680  	0.031032 
3579.882496  	0.030751 
3581.811312  	0.030478 
3583.740128  	0.029254 
3585.668944  	0.027873 
3587.597760  	0.029014 
3589.526576  	0.029900 
3591.455392  	0.027869 
3593.384208  	0.026751 
3595.313024  	0.026840 
3597.241840  	0.026550 
3599.170656  	0.025783 
3601.099472  	0.025564 
3603.028288  	0.025192 
3604.957104  	0.023876 
3606.885920  	0.022675 
3608.814736  	0.023423 
3610.743552  	0.022767 
3612.672368  	0.021520 
3614.601184  	0.021521 
3616.530000  	0.019895 
3618.458816  	0.019604 
3620.387632  	0.021161 
3622.316448  	0.020475 
3624.245264  	0.018816 
3626.174080  	0.016203 
3628.102896  	0.015397 
3630.031712  	0.019695 
3631.960528  	0.018274 
3633.889344  	0.016823 
3635.818160  	0.016310 
3637.746976  	0.015794 
3639.675792  	0.015711 
3641.604608  	0.014957 
3643.533424  	0.013662 
3645.462240  	0.011001 
3647.391056  	0.009589 
3649.319872  	0.011056 
3651.248688  	0.014284 
3653.177504  	0.012976 
3655.106320  	0.010678 
3657.035136  	0.012256 
3658.963952  	0.012106 
3660.892768  	0.010896 
3662.821584  	0.010258 
3664.750400  	0.009653 
3666.679216  	0.007681 
3668.608032  	0.005785 
3670.536848  	0.008207 
3672.465664  	0.007469 
3674.394480  	0.004653 
3676.323296  	0.009722 
3678.252112  	0.010020 
3680.180928  	0.009457 
3682.109744  	0.009041 
3684.038560  	0.008092 
3685.967376  	0.005954 
3687.896192  	0.004927 
3689.825008  	0.007211 
3691.753824  	0.008614 
3693.682640  	0.008681 
3695.611456  	0.008081 
3697.540272  	0.007971 
3699.469088  	0.006941 
3701.397904  	0.007629 
3703.326720  	0.008981 
3705.255536  	0.008059 
3707.184352  	0.006348 
3709.113168  	0.005120 
3711.041984  	0.006140 
3712.970800  	0.009100 
3714.899616  	0.009145 
3716.828432  	0.007952 
3718.757248  	0.007242 
3720.686064  	0.006631 
3722.614880  	0.007254 
3724.543696  	0.007676 
3726.472512  	0.008465 
3728.401328  	0.008088 
3730.330144  	0.005267 
3732.258960  	0.004573 
3734.187776  	0.005384 
3736.116592  	0.008566 
3738.045408  	0.009005 
3739.974224  	0.006754 
3741.903040  	0.004179 
3743.831856  	0.004764 
3745.760672  	0.009422 
3747.689488  	0.005362 
3749.618304  	0.004033 
3751.547120  	0.007132 
3753.475936  	0.009908 
3755.404752  	0.008129 
3757.333568  	0.006882 
3759.262384  	0.007560 
3761.191200  	0.009032 
3763.120016  	0.007877 
3765.048832  	0.007469 
3766.977648  	0.007534 
3768.906464  	0.006984 
3770.835280  	0.008997 
3772.764096  	0.009217 
3774.692912  	0.008467 
3776.621728  	0.007436 
3778.550544  	0.007093 
3780.479360  	0.008728 
3782.408176  	0.008143 
3784.336992  	0.007729 
3786.265808  	0.008454 
3788.194624  	0.008627 
3790.123440  	0.008462 
3792.052256  	0.008253 
3793.981072  	0.007147 
3795.909888  	0.006763 
3797.838704  	0.007062 
3799.767520  	0.004755 
3801.696336  	0.007055 
3803.625152  	0.008428 
3805.553968  	0.005976 
3807.482784  	0.008519 
3809.411600  	0.009448 
3811.340416  	0.008258 
3813.269232  	0.006376 
3815.198048  	0.005547 
3817.126864  	0.007796 
3819.055680  	0.005256 
3820.984496  	0.006375 
3822.913312  	0.009685 
3824.842128  	0.007702 
3826.770944  	0.007728 
3828.699760  	0.007720 
3830.628576  	0.006697 
3832.557392  	0.006923 
3834.486208  	0.005967 
3836.415024  	0.005054 
3838.343840  	0.006774 
3840.272656  	0.008001 
3842.201472  	0.007786 
3844.130288  	0.008343 
3846.059104  	0.008612 
3847.987920  	0.007291 
3849.916736  	0.004923 
3851.845552  	0.002510 
3853.774368  	0.008283 
3855.703184  	0.010977 
3857.632000  	0.008936 
3859.560816  	0.007469 
3861.489632  	0.006619 
3863.418448  	0.006845 
3865.347264  	0.008425 
3867.276080  	0.007020 
3869.204896  	0.006345 
3871.133712  	0.009473 
3873.062528  	0.008069 
3874.991344  	0.009188 
3876.920160  	0.008233 
3878.848976  	0.006444 
3880.777792  	0.008233 
3882.706608  	0.008262 
3884.635424  	0.007091 
3886.564240  	0.009764 
3888.493056  	0.008250 
3890.421872  	0.007123 
3892.350688  	0.009230 
3894.279504  	0.009179 
3896.208320  	0.007698 
3898.137136  	0.006748 
3900.065952  	0.007323 
3901.994768  	0.007780 
3903.923584  	0.008926 
3905.852400  	0.010232 
3907.781216  	0.009617 
3909.710032  	0.008907 
3911.638848  	0.008735 
3913.567664  	0.008459 
3915.496480  	0.007903 
3917.425296  	0.008973 
3919.354112  	0.009502 
3921.282928  	0.009269 
3923.211744  	0.008612 
3925.140560  	0.009225 
3927.069376  	0.008982 
3928.998192  	0.008149 
3930.927008  	0.008520 
3932.855824  	0.009790 
3934.784640  	0.009809 
3936.713456  	0.009290 
3938.642272  	0.009142 
3940.571088  	0.008490 
3942.499904  	0.009042 
3944.428720  	0.009662 
3946.357536  	0.008876 
3948.286352  	0.008850 
3950.215168  	0.009147 
3952.143984  	0.009233 
3954.072800  	0.009072 
3956.001616  	0.008904 
3957.930432  	0.009044 
3959.859248  	0.009164 
3961.788064  	0.009201 
3963.716880  	0.009406 
3965.645696  	0.009210 
3967.574512  	0.009126 
3969.503328  	0.009166 
3971.432144  	0.009025 
3973.360960  	0.008924 
3975.289776  	0.009175 
3977.218592  	0.009387 
3979.147408  	0.009349 
3981.076224  	0.009223 
3983.005040  	0.009273 
3984.933856  	0.009353 
3986.862672  	0.009318 
3988.791488  	0.009073 
3990.720304  	0.009143 
3992.649120  	0.009190 
3994.577936  	0.009219 
3996.506752  	0.009358 
3998.435568  	0.009388 
4000.364384  	0.009355 