##TITLE=No Description
##DATA TYPE=INFRARED SPECTRUM
##XUNITS=1/CM
##YUNITS=Abs
399.264912  	0.550329 
401.193728  	0.546331 
403.122544  	0.552723 
405.051360  	0.545012 
406.980176  	0.540262 
408.908992  	0.535785 
410.837808  	0.543814 
412.766624  	0.555681 
414.695440  	0.557838 
416.624256  	0.539164 
418.553072  	0.522590 
420.481888  	0.514084 
422.410704  	0.525884 
424.339520  	0.524340 
426.268336  	0.530287 
428.197152  	0.527633 
430.125968  	0.525842 
432.054784  	0.516794 
433.983600  	0.510451 
435.912416  	0.504246 
437.841232  	0.506084 
439.770048  	0.506987 
441.698864  	0.505026 
443.627680  	0.500434 
445.556496  	0.496907 
447.485312  	0.493977 
449.414128  	0.492327 
451.342944  	0.488200 
453.271760  	0.494551 
455.200576  	0.490908 
457.129392  	0.485146 
459.058208  	0.487856 
460.987024  	0.496920 
462.915840  	0.497464 
464.844656  	0.495413 
466.773472  	0.488921 
468.702288  	0.490396 
470.631104  	0.493083 
472.559920  	0.495060 
474.488736  	0.492389 
476.417552  	0.491365 
478.346368  	0.488837 
480.275184  	0.488988 
482.204000  	0.492500 
484.132816  	0.496335 
486.061632  	0.490178 
487.990448  	0.487943 
489.919264  	0.485138 
491.848080  	0.481734 
493.776896  	0.480627 
495.705712  	0.481795 
497.634528  	0.480946 
499.563344  	0.482975 
501.492160  	0.478024 
503.420976  	0.475200 
505.349792  	0.476201 
507.278608  	0.479107 
509.207424  	0.477023 
511.136240  	0.478733 
513.065056  	0.478304 
514.993872  	0.477951 
516.922688  	0.479400 
518.851504  	0.481561 
520.780320  	0.479748 
522.709136  	0.480360 
524.637952  	0.477314 
526.566768  	0.474280 
528.495584  	0.473390 
530.424400  	0.471838 
532.353216  	0.467817 
534.282032  	0.463288 
536.210848  	0.459283 
538.139664  	0.456867 
540.068480  	0.453153 
541.997296  	0.448590 
543.926112  	0.443294 
545.854928  	0.441491 
547.783744  	0.437685 
549.712560  	0.433823 
551.641376  	0.429449 
553.570192  	0.427347 
555.499008  	0.424092 
557.427824  	0.420076 
559.356640  	0.415468 
561.285456  	0.412394 
563.214272  	0.409462 
565.143088  	0.406991 
567.071904  	0.402932 
569.000720  	0.398948 
570.929536  	0.395040 
572.858352  	0.392927 
574.787168  	0.390340 
576.715984  	0.387781 
578.644800  	0.383797 
580.573616  	0.379877 
582.502432  	0.375939 
584.431248  	0.373804 
586.360064  	0.371796 
588.288880  	0.369017 
590.217696  	0.365730 
592.146512  	0.363337 
594.075328  	0.361509 
596.004144  	0.359780 
597.932960  	0.358124 
599.861776  	0.357652 
601.790592  	0.356300 
603.719408  	0.354758 
605.648224  	0.352567 
607.577040  	0.352066 
609.505856  	0.352039 
611.434672  	0.350850 
613.363488  	0.348136 
615.292304  	0.346823 
617.221120  	0.345278 
619.149936  	0.344309 
621.078752  	0.342224 
623.007568  	0.339849 
624.936384  	0.337711 
626.865200  	0.336358 
628.794016  	0.335529 
630.722832  	0.334758 
632.651648  	0.333177 
634.580464  	0.332696 
636.509280  	0.333415 
638.438096  	0.333374 
640.366912  	0.332071 
642.295728  	0.330657 
644.224544  	0.328504 
646.153360  	0.325597 
648.082176  	0.321525 
650.010992  	0.318800 
651.939808  	0.315958 
653.868624  	0.312955 
655.797440  	0.308660 
657.726256  	0.304814 
659.655072  	0.301440 
661.583888  	0.298498 
663.512704  	0.295177 
665.441520  	0.292234 
667.370336  	0.287167 
669.299152  	0.282280 
671.227968  	0.281535 
673.156784  	0.279300 
675.085600  	0.276500 
677.014416  	0.274872 
678.943232  	0.273612 
680.872048  	0.272158 
682.800864  	0.270890 
684.729680  	0.269629 
686.658496  	0.267585 
688.587312  	0.265961 
690.516128  	0.264271 
692.444944  	0.262709 
694.373760  	0.261091 
696.302576  	0.259848 
698.231392  	0.257577 
700.160208  	0.254940 
702.089024  	0.252504 
704.017840  	0.251223 
705.946656  	0.248796 
707.875472  	0.246141 
709.804288  	0.243964 
711.733104  	0.243074 
713.661920  	0.242148 
715.590736  	0.241730 
717.519552  	0.241166 
719.448368  	0.241171 
721.377184  	0.242230 
723.306000  	0.242855 
725.234816  	0.242614 
727.163632  	0.241694 
729.092448  	0.239514 
731.021264  	0.237052 
732.950080  	0.234364 
734.878896  	0.231229 
736.807712  	0.228503 
738.736528  	0.227050 
740.665344  	0.225410 
742.594160  	0.224139 
744.522976  	0.222768 
746.451792  	0.221902 
748.380608  	0.220980 
750.309424  	0.220129 
752.238240  	0.219813 
754.167056  	0.219565 
756.095872  	0.218540 
758.024688  	0.217599 
759.953504  	0.217364 
761.882320  	0.217481 
763.811136  	0.217954 
765.739952  	0.217718 
767.668768  	0.216531 
769.597584  	0.215356 
771.526400  	0.215374 
773.455216  	0.217201 
775.384032  	0.220219 
777.312848  	0.224043 
779.241664  	0.227722 
781.170480  	0.228492 
783.099296  	0.225569 
785.028112  	0.220609 
786.956928  	0.214952 
788.885744  	0.210275 
790.814560  	0.206456 
792.743376  	0.203703 
794.672192  	0.202025 
796.601008  	0.201529 
798.529824  	0.200105 
800.458640  	0.196917 
802.387456  	0.193603 
804.316272  	0.192045 
806.245088  	0.191438 
808.173904  	0.191157 
810.102720  	0.191140 
812.031536  	0.191275 
813.960352  	0.191221 
815.889168  	0.191197 
817.817984  	0.191292 
819.746800  	0.191054 
821.675616  	0.190827 
823.604432  	0.190781 
825.533248  	0.189986 
827.462064  	0.188723 
829.390880  	0.187661 
831.319696  	0.186514 
833.248512  	0.185012 
835.177328  	0.183221 
837.106144  	0.180973 
839.034960  	0.178245 
840.963776  	0.175436 
842.892592  	0.172963 
844.821408  	0.170216 
846.750224  	0.167474 
848.679040  	0.165478 
850.607856  	0.163651 
852.536672  	0.161972 
854.465488  	0.160519 
856.394304  	0.159322 
858.323120  	0.158295 
860.251936  	0.157079 
862.180752  	0.155330 
864.109568  	0.153398 
866.038384  	0.151879 
867.967200  	0.150521 
869.896016  	0.149334 
871.824832  	0.148280 
873.753648  	0.147579 
875.682464  	0.147605 
877.611280  	0.148212 
879.540096  	0.148833 
881.468912  	0.149531 
883.397728  	0.150038 
885.326544  	0.150189 
887.255360  	0.149984 
889.184176  	0.149534 
891.112992  	0.148597 
893.041808  	0.146849 
894.970624  	0.144633 
896.899440  	0.142153 
898.828256  	0.138968 
900.757072  	0.135483 
902.685888  	0.132595 
904.614704  	0.131062 
906.543520  	0.130716 
908.472336  	0.131562 
910.401152  	0.133723 
912.329968  	0.136596 
914.258784  	0.139355 
916.187600  	0.141948 
918.116416  	0.143793 
920.045232  	0.144485 
921.974048  	0.144138 
923.902864  	0.143327 
925.831680  	0.142201 
927.760496  	0.141096 
929.689312  	0.140148 
931.618128  	0.139945 
933.546944  	0.140387 
935.475760  	0.140607 
937.404576  	0.140612 
939.333392  	0.141154 
941.262208  	0.142505 
943.191024  	0.144935 
945.119840  	0.148589 
947.048656  	0.153182 
948.977472  	0.158988 
950.906288  	0.165659 
952.835104  	0.172764 
954.763920  	0.179775 
956.692736  	0.186117 
958.621552  	0.191473 
960.550368  	0.194518 
962.479184  	0.195501 
964.408000  	0.193913 
966.336816  	0.189965 
968.265632  	0.183635 
970.194448  	0.175837 
972.123264  	0.166965 
974.052080  	0.157546 
975.980896  	0.148333 
977.909712  	0.139764 
979.838528  	0.132504 
981.767344  	0.126664 
983.696160  	0.122718 
985.624976  	0.120878 
987.553792  	0.121492 
989.482608  	0.123887 
991.411424  	0.127843 
993.340240  	0.133443 
995.269056  	0.140270 
997.197872  	0.147322 
999.126688  	0.154063 
1001.055504  	0.161129 
1002.984320  	0.167901 
1004.913136  	0.174314 
1006.841952  	0.179792 
1008.770768  	0.184560 
1010.699584  	0.188219 
1012.628400  	0.190984 
1014.557216  	0.192479 
1016.486032  	0.193136 
1018.414848  	0.193562 
1020.343664  	0.194127 
1022.272480  	0.194659 
1024.201296  	0.194903 
1026.130112  	0.195030 
1028.058928  	0.195734 
1029.987744  	0.196757 
1031.916560  	0.198656 
1033.845376  	0.201430 
1035.774192  	0.204576 
1037.703008  	0.208375 
1039.631824  	0.213911 
1041.560640  	0.220518 
1043.489456  	0.229226 
1045.418272  	0.239809 
1047.347088  	0.252218 
1049.275904  	0.264526 
1051.204720  	0.276506 
1053.133536  	0.286033 
1055.062352  	0.293249 
1056.991168  	0.297566 
1058.919984  	0.299772 
1060.848800  	0.299180 
1062.777616  	0.297736 
1064.706432  	0.295047 
1066.635248  	0.291220 
1068.564064  	0.286021 
1070.492880  	0.280478 
1072.421696  	0.274880 
1074.350512  	0.269890 
1076.279328  	0.265121 
1078.208144  	0.261596 
1080.136960  	0.258928 
1082.065776  	0.256419 
1083.994592  	0.253449 
1085.923408  	0.250462 
1087.852224  	0.246362 
1089.781040  	0.242230 
1091.709856  	0.236654 
1093.638672  	0.229653 
1095.567488  	0.221336 
1097.496304  	0.212971 
1099.425120  	0.203743 
1101.353936  	0.194483 
1103.282752  	0.184823 
1105.211568  	0.174735 
1107.140384  	0.165030 
1109.069200  	0.155914 
1110.998016  	0.147306 
1112.926832  	0.138943 
1114.855648  	0.130754 
1116.784464  	0.122930 
1118.713280  	0.115926 
1120.642096  	0.109539 
1122.570912  	0.103479 
1124.499728  	0.097756 
1126.428544  	0.092210 
1128.357360  	0.087297 
1130.286176  	0.082868 
1132.214992  	0.079098 
1134.143808  	0.075813 
1136.072624  	0.072804 
1138.001440  	0.069959 
1139.930256  	0.067288 
1141.859072  	0.064785 
1143.787888  	0.062121 
1145.716704  	0.060014 
1147.645520  	0.058585 
1149.574336  	0.057445 
1151.503152  	0.056446 
1153.431968  	0.056161 
1155.360784  	0.056158 
1157.289600  	0.056703 
1159.218416  	0.057728 
1161.147232  	0.059119 
1163.076048  	0.060448 
1165.004864  	0.062163 
1166.933680  	0.063982 
1168.862496  	0.066047 
1170.791312  	0.068531 
1172.720128  	0.070987 
1174.648944  	0.073246 
1176.577760  	0.075780 
1178.506576  	0.078566 
1180.435392  	0.081215 
1182.364208  	0.083726 
1184.293024  	0.086408 
1186.221840  	0.089252 
1188.150656  	0.092396 
1190.079472  	0.096115 
1192.008288  	0.100421 
1193.937104  	0.105259 
1195.865920  	0.110956 
1197.794736  	0.117029 
1199.723552  	0.123586 
1201.652368  	0.130431 
1203.581184  	0.137269 
1205.510000  	0.143823 
1207.438816  	0.150284 
1209.367632  	0.156787 
1211.296448  	0.162583 
1213.225264  	0.167806 
1215.154080  	0.172354 
1217.082896  	0.176161 
1219.011712  	0.179006 
1220.940528  	0.181555 
1222.869344  	0.183292 
1224.798160  	0.184668 
1226.726976  	0.185442 
1228.655792  	0.185800 
1230.584608  	0.185388 
1232.513424  	0.184283 
1234.442240  	0.182090 
1236.371056  	0.179181 
1238.299872  	0.175505 
1240.228688  	0.171278 
1242.157504  	0.165995 
1244.086320  	0.160340 
1246.015136  	0.154134 
1247.943952  	0.147677 
1249.872768  	0.141186 
1251.801584  	0.134885 
1253.730400  	0.128640 
1255.659216  	0.122669 
1257.588032  	0.116887 
1259.516848  	0.111332 
1261.445664  	0.106128 
1263.374480  	0.101386 
1265.303296  	0.097038 
1267.232112  	0.093435 
1269.160928  	0.090661 
1271.089744  	0.088674 
1273.018560  	0.087647 
1274.947376  	0.087223 
1276.876192  	0.086785 
1278.805008  	0.085888 
1280.733824  	0.084188 
1282.662640  	0.081502 
1284.591456  	0.078052 
1286.520272  	0.074564 
1288.449088  	0.071803 
1290.377904  	0.069703 
1292.306720  	0.067968 
1294.235536  	0.065936 
1296.164352  	0.063092 
1298.093168  	0.059858 
1300.021984  	0.056711 
1301.950800  	0.053684 
1303.879616  	0.051049 
1305.808432  	0.048891 
1307.737248  	0.047089 
1309.666064  	0.045520 
1311.594880  	0.044587 
1313.523696  	0.044099 
1315.452512  	0.043828 
1317.381328  	0.043972 
1319.310144  	0.044572 
1321.238960  	0.045402 
1323.167776  	0.046294 
1325.096592  	0.046872 
1327.025408  	0.047082 
1328.954224  	0.046772 
1330.883040  	0.046096 
1332.811856  	0.045175 
1334.740672  	0.044261 
1336.669488  	0.043337 
1338.598304  	0.042714 
1340.527120  	0.042441 
1342.455936  	0.042237 
1344.384752  	0.042165 
1346.313568  	0.042616 
1348.242384  	0.043672 
1350.171200  	0.045354 
1352.100016  	0.047249 
1354.028832  	0.049073 
1355.957648  	0.051155 
1357.886464  	0.053197 
1359.815280  	0.054698 
1361.744096  	0.056142 
1363.672912  	0.058234 
1365.601728  	0.059518 
1367.530544  	0.059902 
1369.459360  	0.060357 
1371.388176  	0.059802 
1373.316992  	0.058449 
1375.245808  	0.057354 
1377.174624  	0.055924 
1379.103440  	0.054174 
1381.032256  	0.052703 
1382.961072  	0.051424 
1384.889888  	0.050031 
1386.818704  	0.048829 
1388.747520  	0.048147 
1390.676336  	0.046982 
1392.605152  	0.045559 
1394.533968  	0.044783 
1396.462784  	0.045118 
1398.391600  	0.045301 
1400.320416  	0.046613 
1402.249232  	0.047239 
1404.178048  	0.048141 
1406.106864  	0.049877 
1408.035680  	0.051560 
1409.964496  	0.053056 
1411.893312  	0.054969 
1413.822128  	0.056522 
1415.750944  	0.057399 
1417.679760  	0.057151 
1419.608576  	0.057712 
1421.537392  	0.057787 
1423.466208  	0.056571 
1425.395024  	0.055474 
1427.323840  	0.053579 
1429.252656  	0.051566 
1431.181472  	0.050577 
1433.110288  	0.050111 
1435.039104  	0.049292 
1436.967920  	0.050105 
1438.896736  	0.051613 
1440.825552  	0.051917 
1442.754368  	0.052412 
1444.683184  	0.052338 
1446.612000  	0.051994 
1448.540816  	0.052434 
1450.469632  	0.052909 
1452.398448  	0.052707 
1454.327264  	0.051785 
1456.256080  	0.050253 
1458.184896  	0.052134 
1460.113712  	0.053582 
1462.042528  	0.053779 
1463.971344  	0.053551 
1465.900160  	0.055966 
1467.828976  	0.058314 
1469.757792  	0.059783 
1471.686608  	0.061455 
1473.615424  	0.066964 
1475.544240  	0.070965 
1477.473056  	0.074191 
1479.401872  	0.075412 
1481.330688  	0.075965 
1483.259504  	0.076093 
1485.188320  	0.074881 
1487.117136  	0.072540 
1489.045952  	0.070320 
1490.974768  	0.068452 
1492.903584  	0.065957 
1494.832400  	0.061779 
1496.761216  	0.057713 
1498.690032  	0.054871 
1500.618848  	0.052809 
1502.547664  	0.050083 
1504.476480  	0.045989 
1506.405296  	0.042368 
1508.334112  	0.044138 
1510.262928  	0.044018 
1512.191744  	0.043105 
1514.120560  	0.041822 
1516.049376  	0.040737 
1517.978192  	0.041351 
1519.907008  	0.041390 
1521.835824  	0.043793 
1523.764640  	0.047324 
1525.693456  	0.049657 
1527.622272  	0.052314 
1529.551088  	0.053678 
1531.479904  	0.053171 
1533.408720  	0.052192 
1535.337536  	0.052120 
1537.266352  	0.048628 
1539.195168  	0.043495 
1541.123984  	0.042207 
1543.052800  	0.043066 
1544.981616  	0.043002 
1546.910432  	0.042697 
1548.839248  	0.041564 
1550.768064  	0.041774 
1552.696880  	0.041283 
1554.625696  	0.041398 
1556.554512  	0.039975 
1558.483328  	0.038767 
1560.412144  	0.047177 
1562.340960  	0.050481 
1564.269776  	0.052240 
1566.198592  	0.055970 
1568.127408  	0.058184 
1570.056224  	0.063498 
1571.985040  	0.068438 
1573.913856  	0.069598 
1575.842672  	0.070660 
1577.771488  	0.074425 
1579.700304  	0.074777 
1581.629120  	0.074688 
1583.557936  	0.075008 
1585.486752  	0.076636 
1587.415568  	0.079123 
1589.344384  	0.083075 
1591.273200  	0.087615 
1593.202016  	0.092804 
1595.130832  	0.097850 
1597.059648  	0.102950 
1598.988464  	0.106578 
1600.917280  	0.109516 
1602.846096  	0.111297 
1604.774912  	0.112352 
1606.703728  	0.111705 
1608.632544  	0.111209 
1610.561360  	0.110567 
1612.490176  	0.110134 
1614.418992  	0.108487 
1616.347808  	0.109345 
1618.276624  	0.114097 
1620.205440  	0.117201 
1622.134256  	0.119734 
1624.063072  	0.126898 
1625.991888  	0.132844 
1627.920704  	0.139331 
1629.849520  	0.147132 
1631.778336  	0.152852 
1633.707152  	0.155693 
1635.635968  	0.162117 
1637.564784  	0.171078 
1639.493600  	0.174880 
1641.422416  	0.177802 
1643.351232  	0.178828 
1645.280048  	0.177466 
1647.208864  	0.179187 
1649.137680  	0.180632 
1651.066496  	0.176468 
1652.995312  	0.173269 
1654.924128  	0.178161 
1656.852944  	0.176491 
1658.781760  	0.174283 
1660.710576  	0.171553 
1662.639392  	0.169613 
1664.568208  	0.169066 
1666.497024  	0.166575 
1668.425840  	0.163142 
1670.354656  	0.162304 
1672.283472  	0.161856 
1674.212288  	0.160110 
1676.141104  	0.161140 
1678.069920  	0.161287 
1679.998736  	0.160449 
1681.927552  	0.158617 
1683.856368  	0.157047 
1685.785184  	0.161337 
1687.714000  	0.160436 
1689.642816  	0.158958 
1691.571632  	0.157436 
1693.500448  	0.153906 
1695.429264  	0.149335 
1697.358080  	0.146668 
1699.286896  	0.141773 
1701.215712  	0.139466 
1703.144528  	0.136159 
1705.073344  	0.131000 
1707.002160  	0.126945 
1708.930976  	0.122654 
1710.859792  	0.117384 
1712.788608  	0.111027 
1714.717424  	0.103950 
1716.646240  	0.096628 
1718.575056  	0.091248 
1720.503872  	0.086369 
1722.432688  	0.080547 
1724.361504  	0.074304 
1726.290320  	0.068683 
1728.219136  	0.062805 
1730.147952  	0.057283 
1732.076768  	0.051546 
1734.005584  	0.046384 
1735.934400  	0.043229 
1737.863216  	0.039446 
1739.792032  	0.034865 
1741.720848  	0.032167 
1743.649664  	0.029344 
1745.578480  	0.026527 
1747.507296  	0.023385 
1749.436112  	0.021653 
1751.364928  	0.021063 
1753.293744  	0.020747 
1755.222560  	0.018976 
1757.151376  	0.018143 
1759.080192  	0.017217 
1761.009008  	0.016327 
1762.937824  	0.016149 
1764.866640  	0.015989 
1766.795456  	0.014941 
1768.724272  	0.014553 
1770.653088  	0.012631 
1772.581904  	0.012494 
1774.510720  	0.013649 
1776.439536  	0.013921 
1778.368352  	0.013514 
1780.297168  	0.013287 
1782.225984  	0.013226 
1784.154800  	0.013096 
1786.083616  	0.013147 
1788.012432  	0.012982 
1789.941248  	0.011817 
1791.870064  	0.011228 
1793.798880  	0.011883 
1795.727696  	0.012237 
1797.656512  	0.011692 
1799.585328  	0.011345 
1801.514144  	0.011524 
1803.442960  	0.011646 
1805.371776  	0.011350 
1807.300592  	0.011178 
1809.229408  	0.010542 
1811.158224  	0.010570 
1813.087040  	0.010653 
1815.015856  	0.010458 
1816.944672  	0.010353 
1818.873488  	0.010886 
1820.802304  	0.010930 
1822.731120  	0.010565 
1824.659936  	0.009773 
1826.588752  	0.010105 
1828.517568  	0.009536 
1830.446384  	0.010129 
1832.375200  	0.010780 
1834.304016  	0.010585 
1836.232832  	0.010260 
1838.161648  	0.010625 
1840.090464  	0.010428 
1842.019280  	0.009570 
1843.948096  	0.009230 
1845.876912  	0.010381 
1847.805728  	0.010423 
1849.734544  	0.010642 
1851.663360  	0.010530 
1853.592176  	0.010540 
1855.520992  	0.010541 
1857.449808  	0.010994 
1859.378624  	0.010719 
1861.307440  	0.010544 
1863.236256  	0.010299 
1865.165072  	0.009973 
1867.093888  	0.009250 
1869.022704  	0.009805 
1870.951520  	0.010363 
1872.880336  	0.010486 
1874.809152  	0.010222 
1876.737968  	0.010312 
1878.666784  	0.009934 
1880.595600  	0.010134 
1882.524416  	0.010476 
1884.453232  	0.010395 
1886.382048  	0.010059 
1888.310864  	0.010024 
1890.239680  	0.010437 
1892.168496  	0.010715 
1894.097312  	0.009915 
1896.026128  	0.010141 
1897.954944  	0.010183 
1899.883760  	0.010092 
1901.812576  	0.009704 
1903.741392  	0.009709 
1905.670208  	0.009600 
1907.599024  	0.009851 
1909.527840  	0.009642 
1911.456656  	0.009954 
1913.385472  	0.010256 
1915.314288  	0.010164 
1917.243104  	0.009479 
1919.171920  	0.009927 
1921.100736  	0.009949 
1923.029552  	0.010308 
1924.958368  	0.009755 
1926.887184  	0.009862 
1928.816000  	0.009719 
1930.744816  	0.009358 
1932.673632  	0.008992 
1934.602448  	0.009816 
1936.531264  	0.009985 
1938.460080  	0.009879 
1940.388896  	0.009303 
1942.317712  	0.009123 
1944.246528  	0.009351 
1946.175344  	0.010031 
1948.104160  	0.009794 
1950.032976  	0.010039 
1951.961792  	0.010084 
1953.890608  	0.010318 
1955.819424  	0.009533 
1957.748240  	0.009931 
1959.677056  	0.010166 
1961.605872  	0.009444 
1963.534688  	0.008440 
1965.463504  	0.010005 
1967.392320  	0.009319 
1969.321136  	0.007933 
1971.249952  	0.007872 
1973.178768  	0.009889 
1975.107584  	0.009941 
1977.036400  	0.009816 
1978.965216  	0.011705 
1980.894032  	0.011711 
1982.822848  	0.009978 
1984.751664  	0.010384 
1986.680480  	0.010429 
1988.609296  	0.010878 
1990.538112  	0.010039 
1992.466928  	0.010443 
1994.395744  	0.010707 
1996.324560  	0.010675 
1998.253376  	0.009556 
2000.182192  	0.009483 
2002.111008  	0.010234 
2004.039824  	0.010270 
2005.968640  	0.009295 
2007.897456  	0.010938 
2009.826272  	0.010782 
2011.755088  	0.009200 
2013.683904  	0.008856 
2015.612720  	0.010002 
2017.541536  	0.009745 
2019.470352  	0.009670 
2021.399168  	0.009325 
2023.327984  	0.009257 
2025.256800  	0.009097 
2027.185616  	0.009560 
2029.114432  	0.009486 
2031.043248  	0.010805 
2032.972064  	0.010838 
2034.900880  	0.012316 
2036.829696  	0.012146 
2038.758512  	0.010878 
2040.687328  	0.010286 
2042.616144  	0.010310 
2044.544960  	0.009956 
2046.473776  	0.011301 
2048.402592  	0.011306 
2050.331408  	0.011867 
2052.260224  	0.011687 
2054.189040  	0.011170 
2056.117856  	0.010312 
2058.046672  	0.010054 
2059.975488  	0.009938 
2061.904304  	0.010438 
2063.833120  	0.011164 
2065.761936  	0.011496 
2067.690752  	0.011222 
2069.619568  	0.011251 
2071.548384  	0.010166 
2073.477200  	0.010247 
2075.406016  	0.010885 
2077.334832  	0.011578 
2079.263648  	0.010819 
2081.192464  	0.010802 
2083.121280  	0.011334 
2085.050096  	0.011414 
2086.978912  	0.011144 
2088.907728  	0.011049 
2090.836544  	0.010456 
2092.765360  	0.010341 
2094.694176  	0.010629 
2096.622992  	0.010631 
2098.551808  	0.010359 
2100.480624  	0.010583 
2102.409440  	0.010383 
2104.338256  	0.010987 
2106.267072  	0.011439 
2108.195888  	0.011173 
2110.124704  	0.011239 
2112.053520  	0.011617 
2113.982336  	0.011416 
2115.911152  	0.011646 
2117.839968  	0.011165 
2119.768784  	0.010538 
2121.697600  	0.010237 
2123.626416  	0.009838 
2125.555232  	0.009564 
2127.484048  	0.009964 
2129.412864  	0.009547 
2131.341680  	0.008907 
2133.270496  	0.009405 
2135.199312  	0.010231 
2137.128128  	0.010302 
2139.056944  	0.010325 
2140.985760  	0.009814 
2142.914576  	0.010043 
2144.843392  	0.009243 
2146.772208  	0.009747 
2148.701024  	0.010114 
2150.629840  	0.010688 
2152.558656  	0.009472 
2154.487472  	0.007966 
2156.416288  	0.006955 
2158.345104  	0.009878 
2160.273920  	0.013993 
2162.202736  	0.014103 
2164.131552  	0.012923 
2166.060368  	0.013850 
2167.989184  	0.012561 
2169.918000  	0.011121 
2171.846816  	0.011069 
2173.775632  	0.011955 
2175.704448  	0.012221 
2177.633264  	0.011466 
2179.562080  	0.010877 
2181.490896  	0.010876 
2183.419712  	0.011008 
2185.348528  	0.011964 
2187.277344  	0.011890 
2189.206160  	0.011884 
2191.134976  	0.012852 
2193.063792  	0.013286 
2194.992608  	0.013115 
2196.921424  	0.012907 
2198.850240  	0.012506 
2200.779056  	0.012505 
2202.707872  	0.012352 
2204.636688  	0.012455 
2206.565504  	0.012501 
2208.494320  	0.012834 
2210.423136  	0.011315 
2212.351952  	0.011009 
2214.280768  	0.011776 
2216.209584  	0.011928 
2218.138400  	0.012092 
2220.067216  	0.012534 
2221.996032  	0.011876 
2223.924848  	0.011037 
2225.853664  	0.011446 
2227.782480  	0.012607 
2229.711296  	0.012978 
2231.640112  	0.012573 
2233.568928  	0.012022 
2235.497744  	0.012209 
2237.426560  	0.011941 
2239.355376  	0.011748 
2241.284192  	0.011820 
2243.213008  	0.012038 
2245.141824  	0.011872 
2247.070640  	0.011437 
2248.999456  	0.011166 
2250.928272  	0.011409 
2252.857088  	0.011372 
2254.785904  	0.011314 
2256.714720  	0.012020 
2258.643536  	0.012659 
2260.572352  	0.012298 
2262.501168  	0.012245 
2264.429984  	0.012452 
2266.358800  	0.012926 
2268.287616  	0.012995 
2270.216432  	0.012744 
2272.145248  	0.012179 
2274.074064  	0.012234 
2276.002880  	0.012257 
2277.931696  	0.012878 
2279.860512  	0.013172 
2281.789328  	0.013180 
2283.718144  	0.013151 
2285.646960  	0.013354 
2287.575776  	0.013449 
2289.504592  	0.013204 
2291.433408  	0.012731 
2293.362224  	0.012634 
2295.291040  	0.012650 
2297.219856  	0.012842 
2299.148672  	0.012934 
2301.077488  	0.012923 
2303.006304  	0.012706 
2304.935120  	0.012323 
2306.863936  	0.012000 
2308.792752  	0.011950 
2310.721568  	0.011997 
2312.650384  	0.011983 
2314.579200  	0.011505 
2316.508016  	0.011035 
2318.436832  	0.010554 
2320.365648  	0.010233 
2322.294464  	0.010058 
2324.223280  	0.009447 
2326.152096  	0.007778 
2328.080912  	0.006241 
2330.009728  	0.005515 
2331.938544  	0.005350 
2333.867360  	0.004506 
2335.796176  	0.003849 
2337.724992  	0.003490 
2339.653808  	0.003291 
2341.582624  	0.003393 
2343.511440  	0.004636 
2345.440256  	0.006355 
2347.369072  	0.008131 
2349.297888  	0.007698 
2351.226704  	0.005476 
2353.155520  	0.003352 
2355.084336  	0.001608 
2357.013152  	0.000464 
2358.941968  	-0.000307 
2360.870784  	-0.000801 
2362.799600  	-0.000187 
2364.728416  	0.000886 
2366.657232  	0.002341 
2368.586048  	0.003574 
2370.514864  	0.005398 
2372.443680  	0.007384 
2374.372496  	0.009309 
2376.301312  	0.010840 
2378.230128  	0.011869 
2380.158944  	0.012314 
2382.087760  	0.012755 
2384.016576  	0.013048 
2385.945392  	0.013185 
2387.874208  	0.012893 
2389.803024  	0.012778 
2391.731840  	0.012737 
2393.660656  	0.012768 
2395.589472  	0.012945 
2397.518288  	0.013189 
2399.447104  	0.013226 
2401.375920  	0.013015 
2403.304736  	0.012984 
2405.233552  	0.013178 
2407.162368  	0.013344 
2409.091184  	0.013233 
2411.020000  	0.013133 
2412.948816  	0.013429 
2414.877632  	0.013627 
2416.806448  	0.013713 
2418.735264  	0.013721 
2420.664080  	0.013664 
2422.592896  	0.013512 
2424.521712  	0.013497 
2426.450528  	0.013783 
2428.379344  	0.013806 
2430.308160  	0.013778 
2432.236976  	0.013842 
2434.165792  	0.013881 
2436.094608  	0.014192 
2438.023424  	0.014502 
2439.952240  	0.014640 
2441.881056  	0.014594 
2443.809872  	0.014589 
2445.738688  	0.014550 
2447.667504  	0.014563 
2449.596320  	0.014521 
2451.525136  	0.014699 
2453.453952  	0.014754 
2455.382768  	0.014989 
2457.311584  	0.015247 
2459.240400  	0.015240 
2461.169216  	0.015045 
2463.098032  	0.014966 
2465.026848  	0.014991 
2466.955664  	0.014943 
2468.884480  	0.014733 
2470.813296  	0.014817 
2472.742112  	0.014740 
2474.670928  	0.014656 
2476.599744  	0.014769 
2478.528560  	0.014942 
2480.457376  	0.015174 
2482.386192  	0.015371 
2484.315008  	0.015401 
2486.243824  	0.015641 
2488.172640  	0.015572 
2490.101456  	0.015408 
2492.030272  	0.015789 
2493.959088  	0.015792 
2495.887904  	0.015465 
2497.816720  	0.015622 
2499.745536  	0.015780 
2501.674352  	0.015786 
2503.603168  	0.015767 
2505.531984  	0.015809 
2507.460800  	0.015860 
2509.389616  	0.015866 
2511.318432  	0.015823 
2513.247248  	0.015936 
2515.176064  	0.015961 
2517.104880  	0.016380 
2519.033696  	0.016706 
2520.962512  	0.016624 
2522.891328  	0.016716 
2524.820144  	0.016653 
2526.748960  	0.016573 
2528.677776  	0.016860 
2530.606592  	0.016974 
2532.535408  	0.017022 
2534.464224  	0.017131 
2536.393040  	0.017198 
2538.321856  	0.017017 
2540.250672  	0.017202 
2542.179488  	0.017309 
2544.108304  	0.017443 
2546.037120  	0.017503 
2547.965936  	0.017769 
2549.894752  	0.017935 
2551.823568  	0.017955 
2553.752384  	0.017988 
2555.681200  	0.018040 
2557.610016  	0.018024 
2559.538832  	0.018006 
2561.467648  	0.018187 
2563.396464  	0.018427 
2565.325280  	0.018672 
2567.254096  	0.018883 
2569.182912  	0.018737 
2571.111728  	0.018497 
2573.040544  	0.018274 
2574.969360  	0.018335 
2576.898176  	0.018649 
2578.826992  	0.019049 
2580.755808  	0.019202 
2582.684624  	0.019093 
2584.613440  	0.018839 
2586.542256  	0.019166 
2588.471072  	0.019543 
2590.399888  	0.019502 
2592.328704  	0.019439 
2594.257520  	0.019575 
2596.186336  	0.019958 
2598.115152  	0.020110 
2600.043968  	0.019930 
2601.972784  	0.019906 
2603.901600  	0.020053 
2605.830416  	0.020340 
2607.759232  	0.020346 
2609.688048  	0.020407 
2611.616864  	0.020506 
2613.545680  	0.020715 
2615.474496  	0.020842 
2617.403312  	0.020909 
2619.332128  	0.021107 
2621.260944  	0.021169 
2623.189760  	0.021079 
2625.118576  	0.021209 
2627.047392  	0.021350 
2628.976208  	0.021694 
2630.905024  	0.021830 
2632.833840  	0.021960 
2634.762656  	0.022050 
2636.691472  	0.021990 
2638.620288  	0.021959 
2640.549104  	0.022170 
2642.477920  	0.022448 
2644.406736  	0.022453 
2646.335552  	0.022648 
2648.264368  	0.022870 
2650.193184  	0.023011 
2652.122000  	0.023229 
2654.050816  	0.023401 
2655.979632  	0.023344 
2657.908448  	0.023316 
2659.837264  	0.023433 
2661.766080  	0.023463 
2663.694896  	0.023459 
2665.623712  	0.023455 
2667.552528  	0.023560 
2669.481344  	0.023753 
2671.410160  	0.023972 
2673.338976  	0.024108 
2675.267792  	0.024181 
2677.196608  	0.024309 
2679.125424  	0.024487 
2681.054240  	0.024568 
2682.983056  	0.024599 
2684.911872  	0.024667 
2686.840688  	0.024794 
2688.769504  	0.024974 
2690.698320  	0.025068 
2692.627136  	0.025106 
2694.555952  	0.025189 
2696.484768  	0.025174 
2698.413584  	0.025290 
2700.342400  	0.025384 
2702.271216  	0.025574 
2704.200032  	0.025842 
2706.128848  	0.026018 
2708.057664  	0.026091 
2709.986480  	0.026119 
2711.915296  	0.026159 
2713.844112  	0.026325 
2715.772928  	0.026560 
2717.701744  	0.026680 
2719.630560  	0.026677 
2721.559376  	0.026719 
2723.488192  	0.026833 
2725.417008  	0.027096 
2727.345824  	0.027310 
2729.274640  	0.027370 
2731.203456  	0.027457 
2733.132272  	0.027583 
2735.061088  	0.027754 
2736.989904  	0.027957 
2738.918720  	0.027999 
2740.847536  	0.027902 
2742.776352  	0.028048 
2744.705168  	0.028330 
2746.633984  	0.028377 
2748.562800  	0.028503 
2750.491616  	0.028669 
2752.420432  	0.028633 
2754.349248  	0.028635 
2756.278064  	0.028737 
2758.206880  	0.028738 
2760.135696  	0.028988 
2762.064512  	0.029039 
2763.993328  	0.029009 
2765.922144  	0.029105 
2767.850960  	0.029169 
2769.779776  	0.029175 
2771.708592  	0.029189 
2773.637408  	0.029224 
2775.566224  	0.029357 
2777.495040  	0.029394 
2779.423856  	0.029512 
2781.352672  	0.029672 
2783.281488  	0.029733 
2785.210304  	0.029739 
2787.139120  	0.029983 
2789.067936  	0.030092 
2790.996752  	0.030023 
2792.925568  	0.030176 
2794.854384  	0.030429 
2796.783200  	0.030497 
2798.712016  	0.030374 
2800.640832  	0.030383 
2802.569648  	0.030571 
2804.498464  	0.030702 
2806.427280  	0.030837 
2808.356096  	0.030983 
2810.284912  	0.031107 
2812.213728  	0.031134 
2814.142544  	0.031178 
2816.071360  	0.031280 
2818.000176  	0.031310 
2819.928992  	0.031315 
2821.857808  	0.031453 
2823.786624  	0.031430 
2825.715440  	0.031399 
2827.644256  	0.031454 
2829.573072  	0.031575 
2831.501888  	0.031404 
2833.430704  	0.031336 
2835.359520  	0.031339 
2837.288336  	0.031329 
2839.217152  	0.031416 
2841.145968  	0.031437 
2843.074784  	0.031409 
2845.003600  	0.031592 
2846.932416  	0.031899 
2848.861232  	0.032175 
2850.790048  	0.032248 
2852.718864  	0.032145 
2854.647680  	0.032045 
2856.576496  	0.032009 
2858.505312  	0.031976 
2860.434128  	0.031922 
2862.362944  	0.031943 
2864.291760  	0.032011 
2866.220576  	0.032104 
2868.149392  	0.032440 
2870.078208  	0.032925 
2872.007024  	0.033334 
2873.935840  	0.033709 
2875.864656  	0.034115 
2877.793472  	0.034730 
2879.722288  	0.035285 
2881.651104  	0.035617 
2883.579920  	0.035838 
2885.508736  	0.036152 
2887.437552  	0.036470 
2889.366368  	0.036594 
2891.295184  	0.036790 
2893.224000  	0.037078 
2895.152816  	0.037208 
2897.081632  	0.036947 
2899.010448  	0.036853 
2900.939264  	0.037157 
2902.868080  	0.037429 
2904.796896  	0.037659 
2906.725712  	0.037868 
2908.654528  	0.038051 
2910.583344  	0.038488 
2912.512160  	0.039272 
2914.440976  	0.039896 
2916.369792  	0.040478 
2918.298608  	0.040894 
2920.227424  	0.041322 
2922.156240  	0.041876 
2924.085056  	0.042209 
2926.013872  	0.042687 
2927.942688  	0.043271 
2929.871504  	0.043727 
2931.800320  	0.044146 
2933.729136  	0.044554 
2935.657952  	0.044784 
2937.586768  	0.045007 
2939.515584  	0.045315 
2941.444400  	0.045722 
2943.373216  	0.046058 
2945.302032  	0.046208 
2947.230848  	0.046259 
2949.159664  	0.046154 
2951.088480  	0.046119 
2953.017296  	0.046209 
2954.946112  	0.046104 
2956.874928  	0.045863 
2958.803744  	0.045609 
2960.732560  	0.045417 
2962.661376  	0.045331 
2964.590192  	0.045074 
2966.519008  	0.044805 
2968.447824  	0.044605 
2970.376640  	0.044460 
2972.305456  	0.044154 
2974.234272  	0.043861 
2976.163088  	0.043709 
2978.091904  	0.043623 
2980.020720  	0.043534 
2981.949536  	0.043506 
2983.878352  	0.043371 
2985.807168  	0.043223 
2987.735984  	0.043434 
2989.664800  	0.043556 
2991.593616  	0.043646 
2993.522432  	0.043615 
2995.451248  	0.043540 
2997.380064  	0.043731 
2999.308880  	0.043855 
3001.237696  	0.043966 
3003.166512  	0.044081 
3005.095328  	0.044213 
3007.024144  	0.044583 
3008.952960  	0.044867 
3010.881776  	0.045021 
3012.810592  	0.045255 
3014.739408  	0.045334 
3016.668224  	0.045482 
3018.597040  	0.045695 
3020.525856  	0.045840 
3022.454672  	0.046031 
3024.383488  	0.046327 
3026.312304  	0.046606 
3028.241120  	0.046762 
3030.169936  	0.046713 
3032.098752  	0.046960 
3034.027568  	0.047068 
3035.956384  	0.047167 
3037.885200  	0.047458 
3039.814016  	0.047841 
3041.742832  	0.048244 
3043.671648  	0.048417 
3045.600464  	0.048480 
3047.529280  	0.048671 
3049.458096  	0.048912 
3051.386912  	0.049062 
3053.315728  	0.049399 
3055.244544  	0.049951 
3057.173360  	0.050524 
3059.102176  	0.050838 
3061.030992  	0.051125 
3062.959808  	0.051412 
3064.888624  	0.051780 
3066.817440  	0.052216 
3068.746256  	0.052530 
3070.675072  	0.052762 
3072.603888  	0.053216 
3074.532704  	0.053740 
3076.461520  	0.054084 
3078.390336  	0.054343 
3080.319152  	0.054757 
3082.247968  	0.055286 
3084.176784  	0.055805 
3086.105600  	0.056067 
3088.034416  	0.056364 
3089.963232  	0.056783 
3091.892048  	0.057141 
3093.820864  	0.057538 
3095.749680  	0.057935 
3097.678496  	0.058109 
3099.607312  	0.058454 
3101.536128  	0.058828 
3103.464944  	0.059147 
3105.393760  	0.059508 
3107.322576  	0.059850 
3109.251392  	0.060280 
3111.180208  	0.060464 
3113.109024  	0.060563 
3115.037840  	0.060926 
3116.966656  	0.061364 
3118.895472  	0.061596 
3120.824288  	0.061679 
3122.753104  	0.062017 
3124.681920  	0.062403 
3126.610736  	0.062619 
3128.539552  	0.062792 
3130.468368  	0.062893 
3132.397184  	0.063156 
3134.326000  	0.063526 
3136.254816  	0.063754 
3138.183632  	0.063903 
3140.112448  	0.063935 
3142.041264  	0.064124 
3143.970080  	0.064575 
3145.898896  	0.064793 
3147.827712  	0.064953 
3149.756528  	0.065272 
3151.685344  	0.065640 
3153.614160  	0.065991 
3155.542976  	0.066168 
3157.471792  	0.066282 
3159.400608  	0.066676 
3161.329424  	0.067158 
3163.258240  	0.067483 
3165.187056  	0.067619 
3167.115872  	0.067777 
3169.044688  	0.068089 
3170.973504  	0.068190 
3172.902320  	0.068174 
3174.831136  	0.068278 
3176.759952  	0.068594 
3178.688768  	0.069018 
3180.617584  	0.069122 
3182.546400  	0.068922 
3184.475216  	0.069088 
3186.404032  	0.069235 
3188.332848  	0.069183 
3190.261664  	0.069307 
3192.190480  	0.069353 
3194.119296  	0.069190 
3196.048112  	0.069174 
3197.976928  	0.069350 
3199.905744  	0.069376 
3201.834560  	0.069372 
3203.763376  	0.069433 
3205.692192  	0.069375 
3207.621008  	0.069129 
3209.549824  	0.068913 
3211.478640  	0.068688 
3213.407456  	0.068498 
3215.336272  	0.068528 
3217.265088  	0.068319 
3219.193904  	0.067972 
3221.122720  	0.067779 
3223.051536  	0.067695 
3224.980352  	0.067423 
3226.909168  	0.067142 
3228.837984  	0.067075 
3230.766800  	0.067027 
3232.695616  	0.066869 
3234.624432  	0.066763 
3236.553248  	0.066666 
3238.482064  	0.066575 
3240.410880  	0.066424 
3242.339696  	0.066393 
3244.268512  	0.066325 
3246.197328  	0.066399 
3248.126144  	0.066369 
3250.054960  	0.066440 
3251.983776  	0.066338 
3253.912592  	0.066301 
3255.841408  	0.066389 
3257.770224  	0.066499 
3259.699040  	0.066627 
3261.627856  	0.066725 
3263.556672  	0.066866 
3265.485488  	0.066800 
3267.414304  	0.066915 
3269.343120  	0.067155 
3271.271936  	0.067305 
3273.200752  	0.067442 
3275.129568  	0.067509 
3277.058384  	0.067626 
3278.987200  	0.067825 
3280.916016  	0.067902 
3282.844832  	0.067946 
3284.773648  	0.068129 
3286.702464  	0.068334 
3288.631280  	0.068449 
3290.560096  	0.068552 
3292.488912  	0.068761 
3294.417728  	0.068756 
3296.346544  	0.068716 
3298.275360  	0.068997 
3300.204176  	0.069418 
3302.132992  	0.069498 
3304.061808  	0.069672 
3305.990624  	0.069944 
3307.919440  	0.070129 
3309.848256  	0.070217 
3311.777072  	0.070292 
3313.705888  	0.070450 
3315.634704  	0.070746 
3317.563520  	0.071041 
3319.492336  	0.071248 
3321.421152  	0.071410 
3323.349968  	0.071465 
3325.278784  	0.071594 
3327.207600  	0.071673 
3329.136416  	0.071634 
3331.065232  	0.071404 
3332.994048  	0.071526 
3334.922864  	0.071641 
3336.851680  	0.071417 
3338.780496  	0.071151 
3340.709312  	0.071105 
3342.638128  	0.071059 
3344.566944  	0.070952 
3346.495760  	0.070870 
3348.424576  	0.070809 
3350.353392  	0.070487 
3352.282208  	0.070123 
3354.211024  	0.069853 
3356.139840  	0.069823 
3358.068656  	0.069549 
3359.997472  	0.069161 
3361.926288  	0.068891 
3363.855104  	0.068493 
3365.783920  	0.068187 
3367.712736  	0.068255 
3369.641552  	0.068029 
3371.570368  	0.067618 
3373.499184  	0.067187 
3375.428000  	0.066647 
3377.356816  	0.066399 
3379.285632  	0.066293 
3381.214448  	0.066235 
3383.143264  	0.065802 
3385.072080  	0.065521 
3387.000896  	0.065257 
3388.929712  	0.064853 
3390.858528  	0.064379 
3392.787344  	0.064127 
3394.716160  	0.063886 
3396.644976  	0.063600 
3398.573792  	0.063324 
3400.502608  	0.062783 
3402.431424  	0.062324 
3404.360240  	0.061995 
3406.289056  	0.061814 
3408.217872  	0.061594 
3410.146688  	0.061201 
3412.075504  	0.061021 
3414.004320  	0.060821 
3415.933136  	0.060299 
3417.861952  	0.059793 
3419.790768  	0.059505 
3421.719584  	0.059199 
3423.648400  	0.058726 
3425.577216  	0.058408 
3427.506032  	0.058212 
3429.434848  	0.057696 
3431.363664  	0.057340 
3433.292480  	0.057078 
3435.221296  	0.056779 
3437.150112  	0.056505 
3439.078928  	0.056358 
3441.007744  	0.055947 
3442.936560  	0.055656 
3444.865376  	0.055030 
3446.794192  	0.054327 
3448.723008  	0.054182 
3450.651824  	0.053751 
3452.580640  	0.053328 
3454.509456  	0.052903 
3456.438272  	0.052452 
3458.367088  	0.052027 
3460.295904  	0.051603 
3462.224720  	0.051070 
3464.153536  	0.050491 
3466.082352  	0.050125 
3468.011168  	0.049988 
3469.939984  	0.049556 
3471.868800  	0.048858 
3473.797616  	0.048299 
3475.726432  	0.047878 
3477.655248  	0.047214 
3479.584064  	0.046726 
3481.512880  	0.046519 
3483.441696  	0.046136 
3485.370512  	0.045282 
3487.299328  	0.044817 
3489.228144  	0.044604 
3491.156960  	0.043971 
3493.085776  	0.043417 
3495.014592  	0.043002 
3496.943408  	0.042606 
3498.872224  	0.042039 
3500.801040  	0.041350 
3502.729856  	0.040886 
3504.658672  	0.040754 
3506.587488  	0.040018 
3508.516304  	0.039412 
3510.445120  	0.039613 
3512.373936  	0.039622 
3514.302752  	0.039126 
3516.231568  	0.038561 
3518.160384  	0.038135 
3520.089200  	0.037873 
3522.018016  	0.037297 
3523.946832  	0.037007 
3525.875648  	0.036669 
3527.804464  	0.036267 
3529.733280  	0.036222 
3531.662096  	0.035937 
3533.590912  	0.035219 
3535.519728  	0.034711 
3537.448544  	0.034755 
3539.377360  	0.034336 
3541.306176  	0.033632 
3543.234992  	0.032772 
3545.163808  	0.032442 
3547.092624  	0.032681 
3549.021440  	0.032194 
3550.950256  	0.031272 
3552.879072  	0.031521 
3554.807888  	0.031741 
3556.736704  	0.031110 
3558.665520  	0.030452 
3560.594336  	0.030247 
3562.523152  	0.029669 
3564.451968  	0.028441 
3566.380784  	0.027900 
3568.309600  	0.029082 
3570.238416  	0.029015 
3572.167232  	0.028029 
3574.096048  	0.027472 
3576.024864  	0.027072 
3577.953680  	0.026721 
3579.882496  	0.026404 
3581.811312  	0.026077 
3583.740128  	0.025034 
3585.668944  	0.023557 
3587.597760  	0.023936 
3589.526576  	0.024797 
3591.455392  	0.023363 
3593.384208  	0.022350 
3595.313024  	0.022247 
3597.241840  	0.021952 
3599.170656  	0.021287 
3601.099472  	0.021061 
3603.028288  	0.020868 
3604.957104  	0.019725 
3606.885920  	0.018578 
3608.814736  	0.019043 
3610.743552  	0.018602 
3612.672368  	0.017129 
3614.601184  	0.017073 
3616.530000  	0.015948 
3618.458816  	0.015176 
3620.387632  	0.016122 
3622.316448  	0.016012 
3624.245264  	0.014995 
3626.174080  	0.013056 
3628.102896  	0.011449 
3630.031712  	0.014097 
3631.960528  	0.013945 
3633.889344  	0.013071 
3635.818160  	0.012719 
3637.746976  	0.012197 
3639.675792  	0.012098 
3641.604608  	0.011548 
3643.533424  	0.010767 
3645.462240  	0.008554 
3647.391056  	0.006371 
3649.319872  	0.006631 
3651.248688  	0.009370 
3653.177504  	0.009482 
3655.106320  	0.007756 
3657.035136  	0.008663 
3658.963952  	0.008930 
3660.892768  	0.008096 
3662.821584  	0.007690 
3664.750400  	0.007250 
3666.679216  	0.005680 
3668.608032  	0.003582 
3670.536848  	0.004771 
3672.465664  	0.004900 
3674.394480  	0.002078 
3676.323296  	0.005023 
3678.252112  	0.006467 
3680.180928  	0.006248 
3682.109744  	0.006049 
3684.038560  	0.005429 
3685.967376  	0.003834 
3687.896192  	0.002115 
3689.825008  	0.003222 
3691.753824  	0.004906 
3693.682640  	0.005268 
3695.611456  	0.004677 
3697.540272  	0.004722 
3699.469088  	0.004062 
3701.397904  	0.004335 
3703.326720  	0.005377 
3705.255536  	0.004753 
3707.184352  	0.003398 
3709.113168  	0.002120 
3711.041984  	0.002172 
3712.970800  	0.004568 
3714.899616  	0.005248 
3716.828432  	0.004531 
3718.757248  	0.003889 
3720.686064  	0.003141 
3722.614880  	0.003370 
3724.543696  	0.003837 
3726.472512  	0.004397 
3728.401328  	0.004282 
3730.330144  	0.001994 
3732.258960  	0.000806 
3734.187776  	0.001363 
3736.116592  	0.003679 
3738.045408  	0.004578 
3739.974224  	0.003525 
3741.903040  	0.001868 
3743.831856  	0.001586 
3745.760672  	0.004697 
3747.689488  	0.002282 
3749.618304  	0.000707 
3751.547120  	0.002425 
3753.475936  	0.005104 
3755.404752  	0.004564 
3757.333568  	0.003428 
3759.262384  	0.003781 
3761.191200  	0.005243 
3763.120016  	0.004685 
3765.048832  	0.004098 
3766.977648  	0.004415 
3768.906464  	0.003985 
3770.835280  	0.005293 
3772.764096  	0.005887 
3774.692912  	0.005393 
3776.621728  	0.004401 
3778.550544  	0.003697 
3780.479360  	0.004953 
3782.408176  	0.004855 
3784.336992  	0.004420 
3786.265808  	0.005027 
3788.194624  	0.005285 
3790.123440  	0.005259 
3792.052256  	0.005121 
3793.981072  	0.004330 
3795.909888  	0.003846 
3797.838704  	0.004109 
3799.767520  	0.002312 
3801.696336  	0.003222 
3803.625152  	0.004667 
3805.553968  	0.003088 
3807.482784  	0.004579 
3809.411600  	0.005777 
3811.340416  	0.005226 
3813.269232  	0.003828 
3815.198048  	0.002305 
3817.126864  	0.003794 
3819.055680  	0.002354 
3820.984496  	0.002544 
3822.913312  	0.005578 
3824.842128  	0.004705 
3826.770944  	0.004387 
3828.699760  	0.004392 
3830.628576  	0.003555 
3832.557392  	0.003774 
3834.486208  	0.003196 
3836.415024  	0.002048 
3838.343840  	0.002932 
3840.272656  	0.004076 
3842.201472  	0.004186 
3844.130288  	0.004678 
3846.059104  	0.005154 
3847.987920  	0.004310 
3849.916736  	0.002495 
3851.845552  	0.000002 
3853.774368  	0.003236 
3855.703184  	0.006269 
3857.632000  	0.005248 
3859.560816  	0.004302 
3861.489632  	0.003532 
3863.418448  	0.003277 
3865.347264  	0.004218 
3867.276080  	0.003660 
3869.204896  	0.002717 
3871.133712  	0.005200 
3873.062528  	0.004614 
3874.991344  	0.005228 
3876.920160  	0.004985 
3878.848976  	0.003594 
3880.777792  	0.004545 
3882.706608  	0.004931 
3884.635424  	0.003766 
3886.564240  	0.005375 
3888.493056  	0.004938 
3890.421872  	0.003884 
3892.350688  	0.005162 
3894.279504  	0.005421 
3896.208320  	0.004498 
3898.137136  	0.003620 
3900.065952  	0.003553 
3901.994768  	0.003618 
3903.923584  	0.004711 
3905.852400  	0.006173 
3907.781216  	0.006000 
3909.710032  	0.005477 
3911.638848  	0.005368 
3913.567664  	0.005193 
3915.496480  	0.004784 
3917.425296  	0.005334 
3919.354112  	0.005540 
3921.282928  	0.005561 
3923.211744  	0.005280 
3925.140560  	0.005710 
3927.069376  	0.005697 
3928.998192  	0.005017 
3930.927008  	0.005061 
3932.855824  	0.005777 
3934.784640  	0.005981 
3936.713456  	0.005908 
3938.642272  	0.005907 
3940.571088  	0.005326 
3942.499904  	0.005594 
3944.428720  	0.006083 
3946.357536  	0.005493 
3948.286352  	0.005463 
3950.215168  	0.005607 
3952.143984  	0.005583 
3954.072800  	0.005439 
3956.001616  	0.005413 
3957.930432  	0.005662 
3959.859248  	0.005694 
3961.788064  	0.005632 
3963.716880  	0.005820 
3965.645696  	0.005596 
3967.574512  	0.005602 
3969.503328  	0.005793 
3971.432144  	0.005686 
3973.360960  	0.005548 
3975.289776  	0.005768 
3977.218592  	0.005924 
3979.147408  	0.005898 
3981.076224  	0.005766 
3983.005040  	0.005702 
3984.933856  	0.005673 
3986.862672  	0.005660 
3988.791488  	0.005740 
3990.720304  	0.005920 
3992.649120  	0.006032 
3994.577936  	0.005977 
3996.506752  	0.005864 
3998.435568  	0.005935 
4000.364384  	0.005909 