##TITLE=No Description
##DATA TYPE=INFRARED SPECTRUM
##XUNITS=1/CM
##YUNITS=Abs
399.264912  	0.589234 
401.193728  	0.575777 
403.122544  	0.580562 
405.051360  	0.578937 
406.980176  	0.560402 
408.908992  	0.552838 
410.837808  	0.576213 
412.766624  	0.582051 
414.695440  	0.578588 
416.624256  	0.562258 
418.553072  	0.552666 
420.481888  	0.548050 
422.410704  	0.545174 
424.339520  	0.541565 
426.268336  	0.551147 
428.197152  	0.544867 
430.125968  	0.540042 
432.054784  	0.534492 
433.983600  	0.537368 
435.912416  	0.531512 
437.841232  	0.527299 
439.770048  	0.522016 
441.698864  	0.520294 
443.627680  	0.521036 
445.556496  	0.519960 
447.485312  	0.515385 
449.414128  	0.514325 
451.342944  	0.510782 
453.271760  	0.513301 
455.200576  	0.508106 
457.129392  	0.503292 
459.058208  	0.496759 
460.987024  	0.501512 
462.915840  	0.507833 
464.844656  	0.507775 
466.773472  	0.506143 
468.702288  	0.513996 
470.631104  	0.513556 
472.559920  	0.510384 
474.488736  	0.507178 
476.417552  	0.508153 
478.346368  	0.506356 
480.275184  	0.504384 
482.204000  	0.504604 
484.132816  	0.508885 
486.061632  	0.501831 
487.990448  	0.498843 
489.919264  	0.498648 
491.848080  	0.500612 
493.776896  	0.496534 
495.705712  	0.495936 
497.634528  	0.495302 
499.563344  	0.493422 
501.492160  	0.488850 
503.420976  	0.488824 
505.349792  	0.489290 
507.278608  	0.490914 
509.207424  	0.489781 
511.136240  	0.490712 
513.065056  	0.491531 
514.993872  	0.491569 
516.922688  	0.490629 
518.851504  	0.492066 
520.780320  	0.491272 
522.709136  	0.492090 
524.637952  	0.489342 
526.566768  	0.487517 
528.495584  	0.486520 
530.424400  	0.484140 
532.353216  	0.478741 
534.282032  	0.477261 
536.210848  	0.473219 
538.139664  	0.467819 
540.068480  	0.462891 
541.997296  	0.460683 
543.926112  	0.454995 
545.854928  	0.451840 
547.783744  	0.449495 
549.712560  	0.446768 
551.641376  	0.442742 
553.570192  	0.439882 
555.499008  	0.436049 
557.427824  	0.432843 
559.356640  	0.429131 
561.285456  	0.426376 
563.214272  	0.421915 
565.143088  	0.419885 
567.071904  	0.416163 
569.000720  	0.412063 
570.929536  	0.408217 
572.858352  	0.405628 
574.787168  	0.403115 
576.715984  	0.400761 
578.644800  	0.396442 
580.573616  	0.393155 
582.502432  	0.389111 
584.431248  	0.385631 
586.360064  	0.382901 
588.288880  	0.381100 
590.217696  	0.378584 
592.146512  	0.376223 
594.075328  	0.374399 
596.004144  	0.372519 
597.932960  	0.370736 
599.861776  	0.370448 
601.790592  	0.369313 
603.719408  	0.367553 
605.648224  	0.365623 
607.577040  	0.364826 
609.505856  	0.364157 
611.434672  	0.363288 
613.363488  	0.361224 
615.292304  	0.359572 
617.221120  	0.357551 
619.149936  	0.355681 
621.078752  	0.353305 
623.007568  	0.351264 
624.936384  	0.349720 
626.865200  	0.348791 
628.794016  	0.347253 
630.722832  	0.345991 
632.651648  	0.345479 
634.580464  	0.344956 
636.509280  	0.344457 
638.438096  	0.344037 
640.366912  	0.343163 
642.295728  	0.341779 
644.224544  	0.339380 
646.153360  	0.336658 
648.082176  	0.333141 
650.010992  	0.329979 
651.939808  	0.326465 
653.868624  	0.323222 
655.797440  	0.319716 
657.726256  	0.316387 
659.655072  	0.312639 
661.583888  	0.308992 
663.512704  	0.305340 
665.441520  	0.302253 
667.370336  	0.297616 
669.299152  	0.294246 
671.227968  	0.292981 
673.156784  	0.290534 
675.085600  	0.288136 
677.014416  	0.286504 
678.943232  	0.284721 
680.872048  	0.283237 
682.800864  	0.281741 
684.729680  	0.280180 
686.658496  	0.278244 
688.587312  	0.276251 
690.516128  	0.274172 
692.444944  	0.272895 
694.373760  	0.271323 
696.302576  	0.269522 
698.231392  	0.267460 
700.160208  	0.265400 
702.089024  	0.262496 
704.017840  	0.260429 
705.946656  	0.258018 
707.875472  	0.255571 
709.804288  	0.253268 
711.733104  	0.251654 
713.661920  	0.250218 
715.590736  	0.249614 
717.519552  	0.249087 
719.448368  	0.249597 
721.377184  	0.250599 
723.306000  	0.250943 
725.234816  	0.250286 
727.163632  	0.248917 
729.092448  	0.246540 
731.021264  	0.244107 
732.950080  	0.241378 
734.878896  	0.238479 
736.807712  	0.236195 
738.736528  	0.234400 
740.665344  	0.232745 
742.594160  	0.231485 
744.522976  	0.230087 
746.451792  	0.228675 
748.380608  	0.227516 
750.309424  	0.226775 
752.238240  	0.226000 
754.167056  	0.225585 
756.095872  	0.224742 
758.024688  	0.223612 
759.953504  	0.222974 
761.882320  	0.223295 
763.811136  	0.223127 
765.739952  	0.222280 
767.668768  	0.221386 
769.597584  	0.220385 
771.526400  	0.220034 
773.455216  	0.221348 
775.384032  	0.223812 
777.312848  	0.227132 
779.241664  	0.230698 
781.170480  	0.231439 
783.099296  	0.228270 
785.028112  	0.223300 
786.956928  	0.217873 
788.885744  	0.213238 
790.814560  	0.209333 
792.743376  	0.206946 
794.672192  	0.205481 
796.601008  	0.204629 
798.529824  	0.202611 
800.458640  	0.199369 
802.387456  	0.196333 
804.316272  	0.194755 
806.245088  	0.194035 
808.173904  	0.193672 
810.102720  	0.193437 
812.031536  	0.193345 
813.960352  	0.193036 
815.889168  	0.192716 
817.817984  	0.192430 
819.746800  	0.192162 
821.675616  	0.191665 
823.604432  	0.191182 
825.533248  	0.190310 
827.462064  	0.188958 
829.390880  	0.187587 
831.319696  	0.186307 
833.248512  	0.184773 
835.177328  	0.182998 
837.106144  	0.180630 
839.034960  	0.177855 
840.963776  	0.175029 
842.892592  	0.172502 
844.821408  	0.169762 
846.750224  	0.167223 
848.679040  	0.165252 
850.607856  	0.163288 
852.536672  	0.161786 
854.465488  	0.160375 
856.394304  	0.158706 
858.323120  	0.157314 
860.251936  	0.155862 
862.180752  	0.154122 
864.109568  	0.152548 
866.038384  	0.151233 
867.967200  	0.149668 
869.896016  	0.148103 
871.824832  	0.147001 
873.753648  	0.146280 
875.682464  	0.146206 
877.611280  	0.146808 
879.540096  	0.147418 
881.468912  	0.148033 
883.397728  	0.148052 
885.326544  	0.147949 
887.255360  	0.147678 
889.184176  	0.147245 
891.112992  	0.146298 
893.041808  	0.144715 
894.970624  	0.142429 
896.899440  	0.139809 
898.828256  	0.136702 
900.757072  	0.133502 
902.685888  	0.130964 
904.614704  	0.129399 
906.543520  	0.128882 
908.472336  	0.129675 
910.401152  	0.131399 
912.329968  	0.133908 
914.258784  	0.136684 
916.187600  	0.138998 
918.116416  	0.140564 
920.045232  	0.141150 
921.974048  	0.140627 
923.902864  	0.139763 
925.831680  	0.138724 
927.760496  	0.137718 
929.689312  	0.136831 
931.618128  	0.136721 
933.546944  	0.136840 
935.475760  	0.136802 
937.404576  	0.136762 
939.333392  	0.137324 
941.262208  	0.138403 
943.191024  	0.140415 
945.119840  	0.143784 
947.048656  	0.147942 
948.977472  	0.153266 
950.906288  	0.159361 
952.835104  	0.165671 
954.763920  	0.172051 
956.692736  	0.178037 
958.621552  	0.183009 
960.550368  	0.186007 
962.479184  	0.187101 
964.408000  	0.185621 
966.336816  	0.181966 
968.265632  	0.176086 
970.194448  	0.168707 
972.123264  	0.160152 
974.052080  	0.151072 
975.980896  	0.142339 
977.909712  	0.134287 
979.838528  	0.127508 
981.767344  	0.121782 
983.696160  	0.117715 
985.624976  	0.115802 
987.553792  	0.115998 
989.482608  	0.118008 
991.411424  	0.121725 
993.340240  	0.126788 
995.269056  	0.133079 
997.197872  	0.139732 
999.126688  	0.146092 
1001.055504  	0.152512 
1002.984320  	0.158922 
1004.913136  	0.164939 
1006.841952  	0.170129 
1008.770768  	0.174803 
1010.699584  	0.178214 
1012.628400  	0.180498 
1014.557216  	0.181935 
1016.486032  	0.182971 
1018.414848  	0.183408 
1020.343664  	0.183995 
1022.272480  	0.184331 
1024.201296  	0.184374 
1026.130112  	0.184318 
1028.058928  	0.185109 
1029.987744  	0.186119 
1031.916560  	0.187725 
1033.845376  	0.190198 
1035.774192  	0.193201 
1037.703008  	0.196746 
1039.631824  	0.201472 
1041.560640  	0.207739 
1043.489456  	0.216130 
1045.418272  	0.226255 
1047.347088  	0.238286 
1049.275904  	0.250499 
1051.204720  	0.262530 
1053.133536  	0.272584 
1055.062352  	0.280861 
1056.991168  	0.285712 
1058.919984  	0.288511 
1060.848800  	0.289288 
1062.777616  	0.288498 
1064.706432  	0.285744 
1066.635248  	0.282336 
1068.564064  	0.278044 
1070.492880  	0.273052 
1072.421696  	0.267246 
1074.350512  	0.261853 
1076.279328  	0.257768 
1078.208144  	0.254712 
1080.136960  	0.251779 
1082.065776  	0.249606 
1083.994592  	0.246945 
1085.923408  	0.244156 
1087.852224  	0.240887 
1089.781040  	0.237337 
1091.709856  	0.231797 
1093.638672  	0.225197 
1095.567488  	0.217257 
1097.496304  	0.209042 
1099.425120  	0.200286 
1101.353936  	0.191300 
1103.282752  	0.182047 
1105.211568  	0.172618 
1107.140384  	0.163166 
1109.069200  	0.153748 
1110.998016  	0.144833 
1112.926832  	0.136838 
1114.855648  	0.129066 
1116.784464  	0.121320 
1118.713280  	0.114270 
1120.642096  	0.108047 
1122.570912  	0.102050 
1124.499728  	0.096258 
1126.428544  	0.090862 
1128.357360  	0.085817 
1130.286176  	0.081476 
1132.214992  	0.077753 
1134.143808  	0.074448 
1136.072624  	0.071289 
1138.001440  	0.068348 
1139.930256  	0.065584 
1141.859072  	0.062992 
1143.787888  	0.060501 
1145.716704  	0.058493 
1147.645520  	0.057056 
1149.574336  	0.055817 
1151.503152  	0.054841 
1153.431968  	0.054550 
1155.360784  	0.054611 
1157.289600  	0.055181 
1159.218416  	0.056042 
1161.147232  	0.057382 
1163.076048  	0.058654 
1165.004864  	0.060124 
1166.933680  	0.061660 
1168.862496  	0.063544 
1170.791312  	0.065698 
1172.720128  	0.067911 
1174.648944  	0.070112 
1176.577760  	0.072529 
1178.506576  	0.074971 
1180.435392  	0.077330 
1182.364208  	0.079675 
1184.293024  	0.082188 
1186.221840  	0.084800 
1188.150656  	0.087591 
1190.079472  	0.090863 
1192.008288  	0.094863 
1193.937104  	0.099601 
1195.865920  	0.104866 
1197.794736  	0.110218 
1199.723552  	0.116397 
1201.652368  	0.122931 
1203.581184  	0.129434 
1205.510000  	0.135810 
1207.438816  	0.142333 
1209.367632  	0.148623 
1211.296448  	0.154520 
1213.225264  	0.159825 
1215.154080  	0.164388 
1217.082896  	0.168410 
1219.011712  	0.171399 
1220.940528  	0.174205 
1222.869344  	0.176411 
1224.798160  	0.178071 
1226.726976  	0.179189 
1228.655792  	0.179743 
1230.584608  	0.179563 
1232.513424  	0.178939 
1234.442240  	0.177058 
1236.371056  	0.174562 
1238.299872  	0.171386 
1240.228688  	0.167283 
1242.157504  	0.162266 
1244.086320  	0.156822 
1246.015136  	0.150820 
1247.943952  	0.144526 
1249.872768  	0.138247 
1251.801584  	0.132131 
1253.730400  	0.125830 
1255.659216  	0.119701 
1257.588032  	0.113923 
1259.516848  	0.108503 
1261.445664  	0.103426 
1263.374480  	0.098690 
1265.303296  	0.094363 
1267.232112  	0.090798 
1269.160928  	0.088055 
1271.089744  	0.086200 
1273.018560  	0.085241 
1274.947376  	0.084762 
1276.876192  	0.084223 
1278.805008  	0.083268 
1280.733824  	0.081551 
1282.662640  	0.078912 
1284.591456  	0.075524 
1286.520272  	0.072104 
1288.449088  	0.069290 
1290.377904  	0.067063 
1292.306720  	0.065386 
1294.235536  	0.063296 
1296.164352  	0.060532 
1298.093168  	0.057352 
1300.021984  	0.054113 
1301.950800  	0.051079 
1303.879616  	0.048640 
1305.808432  	0.046588 
1307.737248  	0.044794 
1309.666064  	0.043174 
1311.594880  	0.042294 
1313.523696  	0.041856 
1315.452512  	0.041645 
1317.381328  	0.041725 
1319.310144  	0.042269 
1321.238960  	0.043047 
1323.167776  	0.043883 
1325.096592  	0.044446 
1327.025408  	0.044656 
1328.954224  	0.044277 
1330.883040  	0.043696 
1332.811856  	0.042853 
1334.740672  	0.042041 
1336.669488  	0.041161 
1338.598304  	0.040567 
1340.527120  	0.040061 
1342.455936  	0.039705 
1344.384752  	0.039694 
1346.313568  	0.040280 
1348.242384  	0.041348 
1350.171200  	0.042936 
1352.100016  	0.044753 
1354.028832  	0.046583 
1355.957648  	0.048504 
1357.886464  	0.050436 
1359.815280  	0.052058 
1361.744096  	0.053523 
1363.672912  	0.055237 
1365.601728  	0.056448 
1367.530544  	0.056930 
1369.459360  	0.057221 
1371.388176  	0.056776 
1373.316992  	0.055475 
1375.245808  	0.054117 
1377.174624  	0.052828 
1379.103440  	0.051151 
1381.032256  	0.049445 
1382.961072  	0.048093 
1384.889888  	0.047063 
1386.818704  	0.045898 
1388.747520  	0.044936 
1390.676336  	0.043874 
1392.605152  	0.042606 
1394.533968  	0.041649 
1396.462784  	0.042039 
1398.391600  	0.042449 
1400.320416  	0.043400 
1402.249232  	0.044105 
1404.178048  	0.045008 
1406.106864  	0.046444 
1408.035680  	0.048115 
1409.964496  	0.049741 
1411.893312  	0.051603 
1413.822128  	0.053195 
1415.750944  	0.054439 
1417.679760  	0.054581 
1419.608576  	0.054565 
1421.537392  	0.054504 
1423.466208  	0.053602 
1425.395024  	0.052313 
1427.323840  	0.050722 
1429.252656  	0.048733 
1431.181472  	0.047656 
1433.110288  	0.047422 
1435.039104  	0.047033 
1436.967920  	0.047306 
1438.896736  	0.048403 
1440.825552  	0.049000 
1442.754368  	0.049511 
1444.683184  	0.049463 
1446.612000  	0.049152 
1448.540816  	0.049316 
1450.469632  	0.049886 
1452.398448  	0.050006 
1454.327264  	0.049759 
1456.256080  	0.048594 
1458.184896  	0.048911 
1460.113712  	0.050361 
1462.042528  	0.051044 
1463.971344  	0.050907 
1465.900160  	0.052801 
1467.828976  	0.055229 
1469.757792  	0.057161 
1471.686608  	0.059013 
1473.615424  	0.063581 
1475.544240  	0.067328 
1477.473056  	0.070315 
1479.401872  	0.071671 
1481.330688  	0.072308 
1483.259504  	0.072388 
1485.188320  	0.071471 
1487.117136  	0.069224 
1489.045952  	0.066869 
1490.974768  	0.064568 
1492.903584  	0.062280 
1494.832400  	0.058810 
1496.761216  	0.054681 
1498.690032  	0.051605 
1500.618848  	0.049732 
1502.547664  	0.047642 
1504.476480  	0.044305 
1506.405296  	0.040322 
1508.334112  	0.041053 
1510.262928  	0.041343 
1512.191744  	0.040510 
1514.120560  	0.039464 
1516.049376  	0.038663 
1517.978192  	0.038901 
1519.907008  	0.039236 
1521.835824  	0.040752 
1523.764640  	0.044127 
1525.693456  	0.046733 
1527.622272  	0.049142 
1529.551088  	0.050754 
1531.479904  	0.050793 
1533.408720  	0.049515 
1535.337536  	0.049078 
1537.266352  	0.046687 
1539.195168  	0.041615 
1541.123984  	0.039187 
1543.052800  	0.040106 
1544.981616  	0.040149 
1546.910432  	0.039995 
1548.839248  	0.039302 
1550.768064  	0.039313 
1552.696880  	0.039030 
1554.625696  	0.039164 
1556.554512  	0.038204 
1558.483328  	0.036862 
1560.412144  	0.042825 
1562.340960  	0.046840 
1564.269776  	0.049027 
1566.198592  	0.052533 
1568.127408  	0.054919 
1570.056224  	0.059479 
1571.985040  	0.064183 
1573.913856  	0.065992 
1575.842672  	0.066650 
1577.771488  	0.069476 
1579.700304  	0.070304 
1581.629120  	0.070428 
1583.557936  	0.070770 
1585.486752  	0.072264 
1587.415568  	0.074664 
1589.344384  	0.078435 
1591.273200  	0.082849 
1593.202016  	0.087958 
1595.130832  	0.092853 
1597.059648  	0.097865 
1598.988464  	0.101608 
1600.917280  	0.104435 
1602.846096  	0.105935 
1604.774912  	0.107002 
1606.703728  	0.106609 
1608.632544  	0.105995 
1610.561360  	0.105271 
1612.490176  	0.105033 
1614.418992  	0.104025 
1616.347808  	0.104324 
1618.276624  	0.107974 
1620.205440  	0.111730 
1622.134256  	0.114746 
1624.063072  	0.121208 
1625.991888  	0.127218 
1627.920704  	0.133706 
1629.849520  	0.141379 
1631.778336  	0.147829 
1633.707152  	0.151582 
1635.635968  	0.157214 
1637.564784  	0.165371 
1639.493600  	0.170578 
1641.422416  	0.174051 
1643.351232  	0.176000 
1645.280048  	0.175642 
1647.208864  	0.176417 
1649.137680  	0.177750 
1651.066496  	0.175856 
1652.995312  	0.171809 
1654.924128  	0.174313 
1656.852944  	0.174261 
1658.781760  	0.172866 
1660.710576  	0.170705 
1662.639392  	0.168703 
1664.568208  	0.167786 
1666.497024  	0.166267 
1668.425840  	0.163351 
1670.354656  	0.161883 
1672.283472  	0.161508 
1674.212288  	0.160470 
1676.141104  	0.160709 
1678.069920  	0.161665 
1679.998736  	0.161574 
1681.927552  	0.160447 
1683.856368  	0.158536 
1685.785184  	0.161264 
1687.714000  	0.161468 
1689.642816  	0.160252 
1691.571632  	0.158595 
1693.500448  	0.155990 
1695.429264  	0.151538 
1697.358080  	0.148095 
1699.286896  	0.143938 
1701.215712  	0.139653 
1703.144528  	0.136919 
1705.073344  	0.132114 
1707.002160  	0.127247 
1708.930976  	0.123081 
1710.859792  	0.117976 
1712.788608  	0.112003 
1714.717424  	0.105277 
1716.646240  	0.097741 
1718.575056  	0.090808 
1720.503872  	0.085880 
1722.432688  	0.080632 
1724.361504  	0.074258 
1726.290320  	0.068547 
1728.219136  	0.062810 
1730.147952  	0.057338 
1732.076768  	0.052044 
1734.005584  	0.046392 
1735.934400  	0.042085 
1737.863216  	0.039056 
1739.792032  	0.034473 
1741.720848  	0.031635 
1743.649664  	0.028892 
1745.578480  	0.026144 
1747.507296  	0.023069 
1749.436112  	0.021227 
1751.364928  	0.020243 
1753.293744  	0.019780 
1755.222560  	0.018485 
1757.151376  	0.017496 
1759.080192  	0.016491 
1761.009008  	0.015752 
1762.937824  	0.015267 
1764.866640  	0.015224 
1766.795456  	0.014425 
1768.724272  	0.013978 
1770.653088  	0.012233 
1772.581904  	0.011534 
1774.510720  	0.012456 
1776.439536  	0.013145 
1778.368352  	0.012971 
1780.297168  	0.012825 
1782.225984  	0.012603 
1784.154800  	0.012509 
1786.083616  	0.012429 
1788.012432  	0.012376 
1789.941248  	0.011460 
1791.870064  	0.010833 
1793.798880  	0.011001 
1795.727696  	0.011639 
1797.656512  	0.011242 
1799.585328  	0.010748 
1801.514144  	0.010663 
1803.442960  	0.010881 
1805.371776  	0.010719 
1807.300592  	0.010726 
1809.229408  	0.010111 
1811.158224  	0.009901 
1813.087040  	0.009877 
1815.015856  	0.009853 
1816.944672  	0.009856 
1818.873488  	0.010265 
1820.802304  	0.010220 
1822.731120  	0.010058 
1824.659936  	0.009541 
1826.588752  	0.009656 
1828.517568  	0.009017 
1830.446384  	0.009589 
1832.375200  	0.010240 
1834.304016  	0.010127 
1836.232832  	0.009847 
1838.161648  	0.010250 
1840.090464  	0.010083 
1842.019280  	0.009497 
1843.948096  	0.008798 
1845.876912  	0.009529 
1847.805728  	0.010071 
1849.734544  	0.010378 
1851.663360  	0.010047 
1853.592176  	0.010049 
1855.520992  	0.009862 
1857.449808  	0.010191 
1859.378624  	0.010216 
1861.307440  	0.010142 
1863.236256  	0.009714 
1865.165072  	0.009561 
1867.093888  	0.009129 
1869.022704  	0.009526 
1870.951520  	0.009874 
1872.880336  	0.010160 
1874.809152  	0.009786 
1876.737968  	0.009849 
1878.666784  	0.009654 
1880.595600  	0.009774 
1882.524416  	0.009589 
1884.453232  	0.009626 
1886.382048  	0.009543 
1888.310864  	0.009525 
1890.239680  	0.009525 
1892.168496  	0.009855 
1894.097312  	0.009303 
1896.026128  	0.009450 
1897.954944  	0.009523 
1899.883760  	0.009681 
1901.812576  	0.009646 
1903.741392  	0.009863 
1905.670208  	0.009601 
1907.599024  	0.009366 
1909.527840  	0.009258 
1911.456656  	0.009748 
1913.385472  	0.009616 
1915.314288  	0.009844 
1917.243104  	0.009750 
1919.171920  	0.009661 
1921.100736  	0.009427 
1923.029552  	0.009840 
1924.958368  	0.009051 
1926.887184  	0.009307 
1928.816000  	0.009252 
1930.744816  	0.008905 
1932.673632  	0.008762 
1934.602448  	0.009512 
1936.531264  	0.009700 
1938.460080  	0.009722 
1940.388896  	0.009243 
1942.317712  	0.009040 
1944.246528  	0.008772 
1946.175344  	0.009331 
1948.104160  	0.008498 
1950.032976  	0.008324 
1951.961792  	0.008781 
1953.890608  	0.009167 
1955.819424  	0.008401 
1957.748240  	0.008811 
1959.677056  	0.008874 
1961.605872  	0.008851 
1963.534688  	0.008050 
1965.463504  	0.009024 
1967.392320  	0.008395 
1969.321136  	0.007595 
1971.249952  	0.007978 
1973.178768  	0.009741 
1975.107584  	0.007877 
1977.036400  	0.007718 
1978.965216  	0.010486 
1980.894032  	0.011104 
1982.822848  	0.009457 
1984.751664  	0.009891 
1986.680480  	0.009583 
1988.609296  	0.009246 
1990.538112  	0.008895 
1992.466928  	0.009567 
1994.395744  	0.009809 
1996.324560  	0.009756 
1998.253376  	0.008877 
2000.182192  	0.008984 
2002.111008  	0.009075 
2004.039824  	0.009316 
2005.968640  	0.008490 
2007.897456  	0.009038 
2009.826272  	0.009041 
2011.755088  	0.008394 
2013.683904  	0.008561 
2015.612720  	0.009765 
2017.541536  	0.008947 
2019.470352  	0.008354 
2021.399168  	0.008091 
2023.327984  	0.008781 
2025.256800  	0.008338 
2027.185616  	0.007769 
2029.114432  	0.007730 
2031.043248  	0.010172 
2032.972064  	0.010177 
2034.900880  	0.010633 
2036.829696  	0.010555 
2038.758512  	0.009911 
2040.687328  	0.009856 
2042.616144  	0.009925 
2044.544960  	0.008814 
2046.473776  	0.009353 
2048.402592  	0.010154 
2050.331408  	0.011192 
2052.260224  	0.009887 
2054.189040  	0.009397 
2056.117856  	0.009438 
2058.046672  	0.009634 
2059.975488  	0.009447 
2061.904304  	0.009372 
2063.833120  	0.009934 
2065.761936  	0.010831 
2067.690752  	0.010261 
2069.619568  	0.009880 
2071.548384  	0.008982 
2073.477200  	0.009366 
2075.406016  	0.010511 
2077.334832  	0.010794 
2079.263648  	0.009870 
2081.192464  	0.009971 
2083.121280  	0.010759 
2085.050096  	0.010824 
2086.978912  	0.010188 
2088.907728  	0.009923 
2090.836544  	0.009169 
2092.765360  	0.009210 
2094.694176  	0.009585 
2096.622992  	0.009769 
2098.551808  	0.009517 
2100.480624  	0.009328 
2102.409440  	0.009219 
2104.338256  	0.009942 
2106.267072  	0.010194 
2108.195888  	0.010266 
2110.124704  	0.010600 
2112.053520  	0.011122 
2113.982336  	0.010735 
2115.911152  	0.010415 
2117.839968  	0.009713 
2119.768784  	0.009160 
2121.697600  	0.009114 
2123.626416  	0.008939 
2125.555232  	0.008673 
2127.484048  	0.009095 
2129.412864  	0.008889 
2131.341680  	0.008313 
2133.270496  	0.008314 
2135.199312  	0.008882 
2137.128128  	0.009440 
2139.056944  	0.009842 
2140.985760  	0.008769 
2142.914576  	0.008819 
2144.843392  	0.008275 
2146.772208  	0.008719 
2148.701024  	0.009028 
2150.629840  	0.008834 
2152.558656  	0.007930 
2154.487472  	0.007483 
2156.416288  	0.006738 
2158.345104  	0.008841 
2160.273920  	0.011705 
2162.202736  	0.012195 
2164.131552  	0.010588 
2166.060368  	0.011497 
2167.989184  	0.010573 
2169.918000  	0.009547 
2171.846816  	0.009260 
2173.775632  	0.009443 
2175.704448  	0.010546 
2177.633264  	0.011307 
2179.562080  	0.010191 
2181.490896  	0.009798 
2183.419712  	0.009595 
2185.348528  	0.010065 
2187.277344  	0.009983 
2189.206160  	0.010128 
2191.134976  	0.011635 
2193.063792  	0.013230 
2194.992608  	0.012288 
2196.921424  	0.010745 
2198.850240  	0.010412 
2200.779056  	0.010470 
2202.707872  	0.010681 
2204.636688  	0.011037 
2206.565504  	0.010966 
2208.494320  	0.011193 
2210.423136  	0.009941 
2212.351952  	0.009550 
2214.280768  	0.009878 
2216.209584  	0.009944 
2218.138400  	0.010332 
2220.067216  	0.010494 
2221.996032  	0.009944 
2223.924848  	0.009934 
2225.853664  	0.010256 
2227.782480  	0.010708 
2229.711296  	0.010861 
2231.640112  	0.010864 
2233.568928  	0.010335 
2235.497744  	0.010527 
2237.426560  	0.010185 
2239.355376  	0.010084 
2241.284192  	0.009986 
2243.213008  	0.009868 
2245.141824  	0.009825 
2247.070640  	0.009796 
2248.999456  	0.010065 
2250.928272  	0.010638 
2252.857088  	0.010348 
2254.785904  	0.009900 
2256.714720  	0.010399 
2258.643536  	0.011006 
2260.572352  	0.010779 
2262.501168  	0.010788 
2264.429984  	0.010719 
2266.358800  	0.010946 
2268.287616  	0.011048 
2270.216432  	0.010903 
2272.145248  	0.010523 
2274.074064  	0.010872 
2276.002880  	0.010992 
2277.931696  	0.011376 
2279.860512  	0.011758 
2281.789328  	0.011945 
2283.718144  	0.011850 
2285.646960  	0.012200 
2287.575776  	0.012406 
2289.504592  	0.012145 
2291.433408  	0.011817 
2293.362224  	0.011744 
2295.291040  	0.011793 
2297.219856  	0.011894 
2299.148672  	0.011923 
2301.077488  	0.012214 
2303.006304  	0.012448 
2304.935120  	0.012402 
2306.863936  	0.012117 
2308.792752  	0.012168 
2310.721568  	0.012296 
2312.650384  	0.012016 
2314.579200  	0.011479 
2316.508016  	0.011538 
2318.436832  	0.011198 
2320.365648  	0.010761 
2322.294464  	0.010685 
2324.223280  	0.010002 
2326.152096  	0.008267 
2328.080912  	0.007152 
2330.009728  	0.006546 
2331.938544  	0.006086 
2333.867360  	0.005233 
2335.796176  	0.004726 
2337.724992  	0.004235 
2339.653808  	0.004246 
2341.582624  	0.004709 
2343.511440  	0.005913 
2345.440256  	0.007186 
2347.369072  	0.008704 
2349.297888  	0.008899 
2351.226704  	0.007353 
2353.155520  	0.005587 
2355.084336  	0.004006 
2357.013152  	0.002748 
2358.941968  	0.002341 
2360.870784  	0.001825 
2362.799600  	0.001780 
2364.728416  	0.002579 
2366.657232  	0.004071 
2368.586048  	0.005147 
2370.514864  	0.006792 
2372.443680  	0.008085 
2374.372496  	0.009468 
2376.301312  	0.010849 
2378.230128  	0.011858 
2380.158944  	0.012096 
2382.087760  	0.012057 
2384.016576  	0.012031 
2385.945392  	0.012158 
2387.874208  	0.011830 
2389.803024  	0.011690 
2391.731840  	0.011499 
2393.660656  	0.011456 
2395.589472  	0.011605 
2397.518288  	0.011793 
2399.447104  	0.011784 
2401.375920  	0.011507 
2403.304736  	0.011532 
2405.233552  	0.011771 
2407.162368  	0.011858 
2409.091184  	0.011833 
2411.020000  	0.011873 
2412.948816  	0.012022 
2414.877632  	0.011776 
2416.806448  	0.011768 
2418.735264  	0.011999 
2420.664080  	0.012020 
2422.592896  	0.011906 
2424.521712  	0.011995 
2426.450528  	0.012107 
2428.379344  	0.011988 
2430.308160  	0.011915 
2432.236976  	0.012033 
2434.165792  	0.012303 
2436.094608  	0.012752 
2438.023424  	0.013061 
2439.952240  	0.013199 
2441.881056  	0.013059 
2443.809872  	0.012927 
2445.738688  	0.012843 
2447.667504  	0.013035 
2449.596320  	0.013041 
2451.525136  	0.013006 
2453.453952  	0.013065 
2455.382768  	0.013346 
2457.311584  	0.013629 
2459.240400  	0.013736 
2461.169216  	0.013534 
2463.098032  	0.013401 
2465.026848  	0.013259 
2466.955664  	0.013206 
2468.884480  	0.013175 
2470.813296  	0.013322 
2472.742112  	0.013307 
2474.670928  	0.013368 
2476.599744  	0.013531 
2478.528560  	0.013563 
2480.457376  	0.013632 
2482.386192  	0.013733 
2484.315008  	0.013743 
2486.243824  	0.013804 
2488.172640  	0.013617 
2490.101456  	0.013765 
2492.030272  	0.014266 
2493.959088  	0.014161 
2495.887904  	0.013734 
2497.816720  	0.013717 
2499.745536  	0.013950 
2501.674352  	0.014228 
2503.603168  	0.014298 
2505.531984  	0.014157 
2507.460800  	0.014169 
2509.389616  	0.014261 
2511.318432  	0.014047 
2513.247248  	0.014133 
2515.176064  	0.014191 
2517.104880  	0.014427 
2519.033696  	0.014564 
2520.962512  	0.014671 
2522.891328  	0.014913 
2524.820144  	0.014859 
2526.748960  	0.014686 
2528.677776  	0.014634 
2530.606592  	0.014691 
2532.535408  	0.014828 
2534.464224  	0.015126 
2536.393040  	0.015224 
2538.321856  	0.014921 
2540.250672  	0.015044 
2542.179488  	0.015203 
2544.108304  	0.015340 
2546.037120  	0.015214 
2547.965936  	0.015485 
2549.894752  	0.015670 
2551.823568  	0.015619 
2553.752384  	0.015626 
2555.681200  	0.015755 
2557.610016  	0.015798 
2559.538832  	0.015889 
2561.467648  	0.016067 
2563.396464  	0.016393 
2565.325280  	0.016512 
2567.254096  	0.016517 
2569.182912  	0.016369 
2571.111728  	0.016160 
2573.040544  	0.016088 
2574.969360  	0.016186 
2576.898176  	0.016314 
2578.826992  	0.016707 
2580.755808  	0.016784 
2582.684624  	0.016719 
2584.613440  	0.016670 
2586.542256  	0.017015 
2588.471072  	0.017175 
2590.399888  	0.016999 
2592.328704  	0.016988 
2594.257520  	0.017250 
2596.186336  	0.017639 
2598.115152  	0.017711 
2600.043968  	0.017528 
2601.972784  	0.017565 
2603.901600  	0.017785 
2605.830416  	0.018050 
2607.759232  	0.017984 
2609.688048  	0.018073 
2611.616864  	0.018149 
2613.545680  	0.018256 
2615.474496  	0.018382 
2617.403312  	0.018524 
2619.332128  	0.018732 
2621.260944  	0.018901 
2623.189760  	0.018882 
2625.118576  	0.018901 
2627.047392  	0.019040 
2628.976208  	0.019369 
2630.905024  	0.019443 
2632.833840  	0.019639 
2634.762656  	0.019962 
2636.691472  	0.019970 
2638.620288  	0.019956 
2640.549104  	0.020045 
2642.477920  	0.020092 
2644.406736  	0.020276 
2646.335552  	0.020518 
2648.264368  	0.020697 
2650.193184  	0.020853 
2652.122000  	0.021049 
2654.050816  	0.021117 
2655.979632  	0.021047 
2657.908448  	0.021075 
2659.837264  	0.021227 
2661.766080  	0.021282 
2663.694896  	0.021398 
2665.623712  	0.021352 
2667.552528  	0.021363 
2669.481344  	0.021545 
2671.410160  	0.021706 
2673.338976  	0.021816 
2675.267792  	0.021959 
2677.196608  	0.022069 
2679.125424  	0.022226 
2681.054240  	0.022280 
2682.983056  	0.022333 
2684.911872  	0.022547 
2686.840688  	0.022714 
2688.769504  	0.022739 
2690.698320  	0.022740 
2692.627136  	0.022834 
2694.555952  	0.022965 
2696.484768  	0.022953 
2698.413584  	0.023069 
2700.342400  	0.023188 
2702.271216  	0.023362 
2704.200032  	0.023607 
2706.128848  	0.023737 
2708.057664  	0.023813 
2709.986480  	0.023903 
2711.915296  	0.023992 
2713.844112  	0.024110 
2715.772928  	0.024338 
2717.701744  	0.024496 
2719.630560  	0.024520 
2721.559376  	0.024603 
2723.488192  	0.024717 
2725.417008  	0.025028 
2727.345824  	0.025244 
2729.274640  	0.025268 
2731.203456  	0.025336 
2733.132272  	0.025529 
2735.061088  	0.025710 
2736.989904  	0.025843 
2738.918720  	0.025899 
2740.847536  	0.025895 
2742.776352  	0.026007 
2744.705168  	0.026231 
2746.633984  	0.026290 
2748.562800  	0.026328 
2750.491616  	0.026404 
2752.420432  	0.026400 
2754.349248  	0.026493 
2756.278064  	0.026632 
2758.206880  	0.026651 
2760.135696  	0.026843 
2762.064512  	0.026895 
2763.993328  	0.026848 
2765.922144  	0.026888 
2767.850960  	0.026945 
2769.779776  	0.027001 
2771.708592  	0.027097 
2773.637408  	0.027185 
2775.566224  	0.027329 
2777.495040  	0.027308 
2779.423856  	0.027307 
2781.352672  	0.027420 
2783.281488  	0.027635 
2785.210304  	0.027749 
2787.139120  	0.027854 
2789.067936  	0.027997 
2790.996752  	0.028037 
2792.925568  	0.028205 
2794.854384  	0.028356 
2796.783200  	0.028381 
2798.712016  	0.028305 
2800.640832  	0.028382 
2802.569648  	0.028608 
2804.498464  	0.028640 
2806.427280  	0.028597 
2808.356096  	0.028810 
2810.284912  	0.029013 
2812.213728  	0.028965 
2814.142544  	0.029094 
2816.071360  	0.029317 
2818.000176  	0.029305 
2819.928992  	0.029243 
2821.857808  	0.029312 
2823.786624  	0.029395 
2825.715440  	0.029430 
2827.644256  	0.029395 
2829.573072  	0.029467 
2831.501888  	0.029491 
2833.430704  	0.029501 
2835.359520  	0.029440 
2837.288336  	0.029349 
2839.217152  	0.029340 
2841.145968  	0.029354 
2843.074784  	0.029331 
2845.003600  	0.029479 
2846.932416  	0.029858 
2848.861232  	0.030172 
2850.790048  	0.030227 
2852.718864  	0.030020 
2854.647680  	0.029704 
2856.576496  	0.029639 
2858.505312  	0.029563 
2860.434128  	0.029610 
2862.362944  	0.029679 
2864.291760  	0.029592 
2866.220576  	0.029534 
2868.149392  	0.029867 
2870.078208  	0.030315 
2872.007024  	0.030664 
2873.935840  	0.030954 
2875.864656  	0.031337 
2877.793472  	0.031846 
2879.722288  	0.032329 
2881.651104  	0.032687 
2883.579920  	0.032974 
2885.508736  	0.033183 
2887.437552  	0.033432 
2889.366368  	0.033601 
2891.295184  	0.033658 
2893.224000  	0.033823 
2895.152816  	0.034114 
2897.081632  	0.033971 
2899.010448  	0.033711 
2900.939264  	0.033839 
2902.868080  	0.034228 
2904.796896  	0.034565 
2906.725712  	0.034750 
2908.654528  	0.034957 
2910.583344  	0.035496 
2912.512160  	0.036348 
2914.440976  	0.037190 
2916.369792  	0.037739 
2918.298608  	0.038156 
2920.227424  	0.038623 
2922.156240  	0.039131 
2924.085056  	0.039578 
2926.013872  	0.040039 
2927.942688  	0.040394 
2929.871504  	0.040788 
2931.800320  	0.041345 
2933.729136  	0.041739 
2935.657952  	0.041897 
2937.586768  	0.042199 
2939.515584  	0.042399 
2941.444400  	0.042597 
2943.373216  	0.042970 
2945.302032  	0.043122 
2947.230848  	0.043138 
2949.159664  	0.043150 
2951.088480  	0.043134 
2953.017296  	0.043266 
2954.946112  	0.043121 
2956.874928  	0.042817 
2958.803744  	0.042551 
2960.732560  	0.042268 
2962.661376  	0.041962 
2964.590192  	0.041608 
2966.519008  	0.041396 
2968.447824  	0.041169 
2970.376640  	0.040786 
2972.305456  	0.040230 
2974.234272  	0.039935 
2976.163088  	0.039801 
2978.091904  	0.039751 
2980.020720  	0.039622 
2981.949536  	0.039413 
2983.878352  	0.039201 
2985.807168  	0.038917 
2987.735984  	0.039015 
2989.664800  	0.039100 
2991.593616  	0.039395 
2993.522432  	0.039504 
2995.451248  	0.039592 
2997.380064  	0.039834 
2999.308880  	0.040092 
3001.237696  	0.040421 
3003.166512  	0.040565 
3005.095328  	0.040702 
3007.024144  	0.041049 
3008.952960  	0.041379 
3010.881776  	0.041657 
3012.810592  	0.041896 
3014.739408  	0.042233 
3016.668224  	0.042771 
3018.597040  	0.042886 
3020.525856  	0.042787 
3022.454672  	0.043041 
3024.383488  	0.043481 
3026.312304  	0.043755 
3028.241120  	0.043856 
3030.169936  	0.043793 
3032.098752  	0.044115 
3034.027568  	0.044356 
3035.956384  	0.044456 
3037.885200  	0.044747 
3039.814016  	0.045253 
3041.742832  	0.045686 
3043.671648  	0.045845 
3045.600464  	0.046065 
3047.529280  	0.046280 
3049.458096  	0.046453 
3051.386912  	0.046513 
3053.315728  	0.046704 
3055.244544  	0.047184 
3057.173360  	0.047843 
3059.102176  	0.048192 
3061.030992  	0.048418 
3062.959808  	0.048713 
3064.888624  	0.049101 
3066.817440  	0.049649 
3068.746256  	0.049927 
3070.675072  	0.050144 
3072.603888  	0.050683 
3074.532704  	0.051143 
3076.461520  	0.051540 
3078.390336  	0.051829 
3080.319152  	0.052149 
3082.247968  	0.052593 
3084.176784  	0.053099 
3086.105600  	0.053477 
3088.034416  	0.053719 
3089.963232  	0.054174 
3091.892048  	0.054555 
3093.820864  	0.054801 
3095.749680  	0.055241 
3097.678496  	0.055464 
3099.607312  	0.055821 
3101.536128  	0.056221 
3103.464944  	0.056624 
3105.393760  	0.057044 
3107.322576  	0.057370 
3109.251392  	0.057576 
3111.180208  	0.057884 
3113.109024  	0.058099 
3115.037840  	0.058184 
3116.966656  	0.058435 
3118.895472  	0.058801 
3120.824288  	0.059194 
3122.753104  	0.059541 
3124.681920  	0.059674 
3126.610736  	0.059834 
3128.539552  	0.060167 
3130.468368  	0.060442 
3132.397184  	0.060598 
3134.326000  	0.060801 
3136.254816  	0.061021 
3138.183632  	0.061228 
3140.112448  	0.061352 
3142.041264  	0.061594 
3143.970080  	0.061882 
3145.898896  	0.062055 
3147.827712  	0.062200 
3149.756528  	0.062553 
3151.685344  	0.063061 
3153.614160  	0.063438 
3155.542976  	0.063628 
3157.471792  	0.063856 
3159.400608  	0.064401 
3161.329424  	0.064724 
3163.258240  	0.064902 
3165.187056  	0.065016 
3167.115872  	0.065184 
3169.044688  	0.065601 
3170.973504  	0.065744 
3172.902320  	0.065795 
3174.831136  	0.065978 
3176.759952  	0.066146 
3178.688768  	0.066431 
3180.617584  	0.066604 
3182.546400  	0.066360 
3184.475216  	0.066419 
3186.404032  	0.066596 
3188.332848  	0.066724 
3190.261664  	0.067023 
3192.190480  	0.067126 
3194.119296  	0.067005 
3196.048112  	0.066981 
3197.976928  	0.067160 
3199.905744  	0.067200 
3201.834560  	0.067175 
3203.763376  	0.067222 
3205.692192  	0.067186 
3207.621008  	0.066982 
3209.549824  	0.066737 
3211.478640  	0.066610 
3213.407456  	0.066565 
3215.336272  	0.066486 
3217.265088  	0.066203 
3219.193904  	0.065893 
3221.122720  	0.065584 
3223.051536  	0.065368 
3224.980352  	0.065200 
3226.909168  	0.065029 
3228.837984  	0.064759 
3230.766800  	0.064651 
3232.695616  	0.064762 
3234.624432  	0.064672 
3236.553248  	0.064468 
3238.482064  	0.064298 
3240.410880  	0.064203 
3242.339696  	0.064139 
3244.268512  	0.064075 
3246.197328  	0.064138 
3248.126144  	0.063973 
3250.054960  	0.063920 
3251.983776  	0.064020 
3253.912592  	0.064095 
3255.841408  	0.064177 
3257.770224  	0.064330 
3259.699040  	0.064509 
3261.627856  	0.064745 
3263.556672  	0.064713 
3265.485488  	0.064613 
3267.414304  	0.064722 
3269.343120  	0.064849 
3271.271936  	0.065110 
3273.200752  	0.065255 
3275.129568  	0.065340 
3277.058384  	0.065430 
3278.987200  	0.065501 
3280.916016  	0.065567 
3282.844832  	0.065596 
3284.773648  	0.065653 
3286.702464  	0.065834 
3288.631280  	0.065985 
3290.560096  	0.066132 
3292.488912  	0.066480 
3294.417728  	0.066547 
3296.346544  	0.066554 
3298.275360  	0.066705 
3300.204176  	0.067023 
3302.132992  	0.067228 
3304.061808  	0.067510 
3305.990624  	0.067843 
3307.919440  	0.067982 
3309.848256  	0.068088 
3311.777072  	0.068122 
3313.705888  	0.068290 
3315.634704  	0.068814 
3317.563520  	0.069217 
3319.492336  	0.069332 
3321.421152  	0.069288 
3323.349968  	0.069454 
3325.278784  	0.069718 
3327.207600  	0.069890 
3329.136416  	0.070016 
3331.065232  	0.069931 
3332.994048  	0.069986 
3334.922864  	0.069934 
3336.851680  	0.069772 
3338.780496  	0.069824 
3340.709312  	0.069677 
3342.638128  	0.069360 
3344.566944  	0.069112 
3346.495760  	0.068951 
3348.424576  	0.068759 
3350.353392  	0.068612 
3352.282208  	0.068416 
3354.211024  	0.068232 
3356.139840  	0.068172 
3358.068656  	0.067864 
3359.997472  	0.067620 
3361.926288  	0.067243 
3363.855104  	0.066646 
3365.783920  	0.066429 
3367.712736  	0.066430 
3369.641552  	0.066045 
3371.570368  	0.065752 
3373.499184  	0.065503 
3375.428000  	0.065066 
3377.356816  	0.064970 
3379.285632  	0.064906 
3381.214448  	0.064568 
3383.143264  	0.064232 
3385.072080  	0.064061 
3387.000896  	0.063625 
3388.929712  	0.063371 
3390.858528  	0.063083 
3392.787344  	0.062681 
3394.716160  	0.062293 
3396.644976  	0.061946 
3398.573792  	0.061619 
3400.502608  	0.061167 
3402.431424  	0.060695 
3404.360240  	0.060235 
3406.289056  	0.059910 
3408.217872  	0.059661 
3410.146688  	0.059417 
3412.075504  	0.059361 
3414.004320  	0.059112 
3415.933136  	0.058615 
3417.861952  	0.058033 
3419.790768  	0.057747 
3421.719584  	0.057495 
3423.648400  	0.057003 
3425.577216  	0.056957 
3427.506032  	0.056876 
3429.434848  	0.056157 
3431.363664  	0.055642 
3433.292480  	0.055418 
3435.221296  	0.055319 
3437.150112  	0.054958 
3439.078928  	0.054413 
3441.007744  	0.054095 
3442.936560  	0.054050 
3444.865376  	0.053626 
3446.794192  	0.052762 
3448.723008  	0.052305 
3450.651824  	0.052077 
3452.580640  	0.051637 
3454.509456  	0.051168 
3456.438272  	0.050766 
3458.367088  	0.050419 
3460.295904  	0.049998 
3462.224720  	0.049391 
3464.153536  	0.048798 
3466.082352  	0.048558 
3468.011168  	0.048325 
3469.939984  	0.047723 
3471.868800  	0.047080 
3473.797616  	0.046743 
3475.726432  	0.046255 
3477.655248  	0.045580 
3479.584064  	0.045200 
3481.512880  	0.044868 
3483.441696  	0.044203 
3485.370512  	0.043606 
3487.299328  	0.043314 
3489.228144  	0.042982 
3491.156960  	0.042325 
3493.085776  	0.041880 
3495.014592  	0.041582 
3496.943408  	0.041273 
3498.872224  	0.040774 
3500.801040  	0.040131 
3502.729856  	0.039559 
3504.658672  	0.039172 
3506.587488  	0.038503 
3508.516304  	0.038084 
3510.445120  	0.038121 
3512.373936  	0.038057 
3514.302752  	0.037587 
3516.231568  	0.036946 
3518.160384  	0.036459 
3520.089200  	0.036234 
3522.018016  	0.035829 
3523.946832  	0.035539 
3525.875648  	0.035208 
3527.804464  	0.034676 
3529.733280  	0.034363 
3531.662096  	0.034145 
3533.590912  	0.033859 
3535.519728  	0.033591 
3537.448544  	0.033308 
3539.377360  	0.032881 
3541.306176  	0.032348 
3543.234992  	0.031785 
3545.163808  	0.031489 
3547.092624  	0.031295 
3549.021440  	0.030852 
3550.950256  	0.030322 
3552.879072  	0.030191 
3554.807888  	0.030179 
3556.736704  	0.029756 
3558.665520  	0.029249 
3560.594336  	0.028912 
3562.523152  	0.028273 
3564.451968  	0.027499 
3566.380784  	0.027085 
3568.309600  	0.027413 
3570.238416  	0.027290 
3572.167232  	0.026583 
3574.096048  	0.026036 
3576.024864  	0.025496 
3577.953680  	0.025037 
3579.882496  	0.024800 
3581.811312  	0.024495 
3583.740128  	0.023884 
3585.668944  	0.022992 
3587.597760  	0.022873 
3589.526576  	0.022906 
3591.455392  	0.021880 
3593.384208  	0.021296 
3595.313024  	0.020932 
3597.241840  	0.020449 
3599.170656  	0.019709 
3601.099472  	0.019415 
3603.028288  	0.019387 
3604.957104  	0.018685 
3606.885920  	0.017680 
3608.814736  	0.017676 
3610.743552  	0.017139 
3612.672368  	0.016092 
3614.601184  	0.015761 
3616.530000  	0.014886 
3618.458816  	0.013991 
3620.387632  	0.014140 
3622.316448  	0.014204 
3624.245264  	0.013730 
3626.174080  	0.012272 
3628.102896  	0.010773 
3630.031712  	0.011590 
3631.960528  	0.011839 
3633.889344  	0.011389 
3635.818160  	0.010918 
3637.746976  	0.010570 
3639.675792  	0.010562 
3641.604608  	0.010196 
3643.533424  	0.009414 
3645.462240  	0.007679 
3647.391056  	0.005708 
3649.319872  	0.005057 
3651.248688  	0.006882 
3653.177504  	0.007334 
3655.106320  	0.006116 
3657.035136  	0.006357 
3658.963952  	0.006603 
3660.892768  	0.006068 
3662.821584  	0.005700 
3664.750400  	0.005367 
3666.679216  	0.004373 
3668.608032  	0.002659 
3670.536848  	0.002436 
3672.465664  	0.002821 
3674.394480  	0.001082 
3676.323296  	0.001941 
3678.252112  	0.003459 
3680.180928  	0.003919 
3682.109744  	0.004066 
3684.038560  	0.003742 
3685.967376  	0.002487 
3687.896192  	0.000925 
3689.825008  	0.001156 
3691.753824  	0.002351 
3693.682640  	0.003024 
3695.611456  	0.003009 
3697.540272  	0.003118 
3699.469088  	0.002711 
3701.397904  	0.002619 
3703.326720  	0.003178 
3705.255536  	0.003081 
3707.184352  	0.002130 
3709.113168  	0.001041 
3711.041984  	0.000727 
3712.970800  	0.002294 
3714.899616  	0.003413 
3716.828432  	0.003113 
3718.757248  	0.002542 
3720.686064  	0.002208 
3722.614880  	0.002508 
3724.543696  	0.002588 
3726.472512  	0.002667 
3728.401328  	0.002667 
3730.330144  	0.001348 
3732.258960  	0.000139 
3734.187776  	0.000265 
3736.116592  	0.001769 
3738.045408  	0.002307 
3739.974224  	0.001885 
3741.903040  	0.000998 
3743.831856  	0.000529 
3745.760672  	0.001903 
3747.689488  	0.000630 
3749.618304  	-0.000730 
3751.547120  	0.000323 
3753.475936  	0.002592 
3755.404752  	0.002660 
3757.333568  	0.002143 
3759.262384  	0.002351 
3761.191200  	0.003248 
3763.120016  	0.003243 
3765.048832  	0.002809 
3766.977648  	0.002615 
3768.906464  	0.002344 
3770.835280  	0.003088 
3772.764096  	0.003693 
3774.692912  	0.003686 
3776.621728  	0.003163 
3778.550544  	0.002611 
3780.479360  	0.003099 
3782.408176  	0.003260 
3784.336992  	0.002937 
3786.265808  	0.003134 
3788.194624  	0.003376 
3790.123440  	0.003333 
3792.052256  	0.003250 
3793.981072  	0.002864 
3795.909888  	0.002305 
3797.838704  	0.002308 
3799.767520  	0.001012 
3801.696336  	0.000915 
3803.625152  	0.002261 
3805.553968  	0.001737 
3807.482784  	0.002218 
3809.411600  	0.003267 
3811.340416  	0.003406 
3813.269232  	0.002554 
3815.198048  	0.001135 
3817.126864  	0.001610 
3819.055680  	0.000868 
3820.984496  	0.000504 
3822.913312  	0.002565 
3824.842128  	0.002684 
3826.770944  	0.002536 
3828.699760  	0.002697 
3830.628576  	0.002235 
3832.557392  	0.002160 
3834.486208  	0.001608 
3836.415024  	0.000698 
3838.343840  	0.001042 
3840.272656  	0.001704 
3842.201472  	0.002018 
3844.130288  	0.002643 
3846.059104  	0.003397 
3847.987920  	0.003117 
3849.916736  	0.001859 
3851.845552  	-0.000343 
3853.774368  	0.000402 
3855.703184  	0.002704 
3857.632000  	0.002872 
3859.560816  	0.002613 
3861.489632  	0.002228 
3863.418448  	0.002022 
3865.347264  	0.002466 
3867.276080  	0.002288 
3869.204896  	0.001678 
3871.133712  	0.002803 
3873.062528  	0.002600 
3874.991344  	0.002948 
3876.920160  	0.003172 
3878.848976  	0.002664 
3880.777792  	0.002922 
3882.706608  	0.003207 
3884.635424  	0.002521 
3886.564240  	0.003164 
3888.493056  	0.003176 
3890.421872  	0.002560 
3892.350688  	0.002947 
3894.279504  	0.003414 
3896.208320  	0.003230 
3898.137136  	0.002653 
3900.065952  	0.002308 
3901.994768  	0.002143 
3903.923584  	0.002661 
3905.852400  	0.003691 
3907.781216  	0.003818 
3909.710032  	0.003606 
3911.638848  	0.003652 
3913.567664  	0.003701 
3915.496480  	0.003611 
3917.425296  	0.003946 
3919.354112  	0.003934 
3921.282928  	0.003788 
3923.211744  	0.003668 
3925.140560  	0.003833 
3927.069376  	0.003796 
3928.998192  	0.003475 
3930.927008  	0.003609 
3932.855824  	0.004055 
3934.784640  	0.004076 
3936.713456  	0.004115 
3938.642272  	0.004100 
3940.571088  	0.003567 
3942.499904  	0.003694 
3944.428720  	0.004186 
3946.357536  	0.003998 
3948.286352  	0.003902 
3950.215168  	0.003815 
3952.143984  	0.003632 
3954.072800  	0.003619 
3956.001616  	0.003641 
3957.930432  	0.003778 
3959.859248  	0.004096 
3961.788064  	0.004122 
3963.716880  	0.003949 
3965.645696  	0.003857 
3967.574512  	0.003903 
3969.503328  	0.004003 
3971.432144  	0.004138 
3973.360960  	0.004119 
3975.289776  	0.004173 
3977.218592  	0.004263 
3979.147408  	0.004170 
3981.076224  	0.003931 
3983.005040  	0.003939 
3984.933856  	0.004181 
3986.862672  	0.004197 
3988.791488  	0.003905 
3990.720304  	0.004037 
3992.649120  	0.004251 
3994.577936  	0.004190 
3996.506752  	0.004139 
3998.435568  	0.004175 
4000.364384  	0.004188 