##TITLE=No Description
##DATA TYPE=INFRARED SPECTRUM
##XUNITS=1/CM
##YUNITS=Abs
399.264912  	0.584191 
401.193728  	0.575001 
403.122544  	0.576128 
405.051360  	0.569493 
406.980176  	0.566876 
408.908992  	0.541468 
410.837808  	0.543873 
412.766624  	0.559097 
414.695440  	0.563449 
416.624256  	0.545203 
418.553072  	0.536388 
420.481888  	0.538148 
422.410704  	0.536734 
424.339520  	0.527380 
426.268336  	0.537735 
428.197152  	0.536672 
430.125968  	0.532014 
432.054784  	0.524012 
433.983600  	0.514521 
435.912416  	0.508216 
437.841232  	0.512452 
439.770048  	0.516751 
441.698864  	0.519606 
443.627680  	0.513080 
445.556496  	0.505666 
447.485312  	0.500433 
449.414128  	0.501525 
451.342944  	0.503945 
453.271760  	0.506293 
455.200576  	0.500462 
457.129392  	0.497839 
459.058208  	0.497092 
460.987024  	0.503605 
462.915840  	0.504420 
464.844656  	0.504471 
466.773472  	0.501679 
468.702288  	0.501016 
470.631104  	0.497111 
472.559920  	0.500648 
474.488736  	0.501212 
476.417552  	0.501213 
478.346368  	0.495032 
480.275184  	0.492601 
482.204000  	0.494212 
484.132816  	0.496556 
486.061632  	0.495106 
487.990448  	0.495248 
489.919264  	0.490155 
491.848080  	0.491657 
493.776896  	0.491217 
495.705712  	0.492708 
497.634528  	0.493333 
499.563344  	0.492979 
501.492160  	0.486747 
503.420976  	0.487042 
505.349792  	0.486817 
507.278608  	0.488486 
509.207424  	0.487047 
511.136240  	0.488670 
513.065056  	0.490823 
514.993872  	0.490953 
516.922688  	0.489144 
518.851504  	0.491014 
520.780320  	0.489769 
522.709136  	0.489570 
524.637952  	0.486478 
526.566768  	0.487822 
528.495584  	0.485156 
530.424400  	0.481496 
532.353216  	0.479910 
534.282032  	0.475668 
536.210848  	0.469109 
538.139664  	0.465229 
540.068480  	0.461508 
541.997296  	0.458798 
543.926112  	0.453116 
545.854928  	0.450061 
547.783744  	0.447704 
549.712560  	0.445048 
551.641376  	0.439998 
553.570192  	0.436805 
555.499008  	0.432877 
557.427824  	0.430542 
559.356640  	0.427397 
561.285456  	0.423663 
563.214272  	0.418703 
565.143088  	0.416016 
567.071904  	0.411568 
569.000720  	0.407956 
570.929536  	0.404043 
572.858352  	0.400327 
574.787168  	0.397116 
576.715984  	0.394663 
578.644800  	0.391177 
580.573616  	0.387240 
582.502432  	0.382707 
584.431248  	0.379778 
586.360064  	0.377740 
588.288880  	0.375710 
590.217696  	0.373349 
592.146512  	0.371776 
594.075328  	0.369287 
596.004144  	0.366805 
597.932960  	0.365371 
599.861776  	0.365464 
601.790592  	0.364591 
603.719408  	0.362909 
605.648224  	0.360512 
607.577040  	0.359507 
609.505856  	0.358700 
611.434672  	0.358338 
613.363488  	0.356709 
615.292304  	0.355425 
617.221120  	0.353684 
619.149936  	0.352319 
621.078752  	0.349894 
623.007568  	0.347495 
624.936384  	0.345410 
626.865200  	0.344720 
628.794016  	0.343729 
630.722832  	0.342455 
632.651648  	0.341246 
634.580464  	0.340621 
636.509280  	0.340739 
638.438096  	0.340876 
640.366912  	0.340175 
642.295728  	0.339109 
644.224544  	0.336231 
646.153360  	0.333162 
648.082176  	0.329776 
650.010992  	0.326735 
651.939808  	0.322697 
653.868624  	0.319184 
655.797440  	0.315634 
657.726256  	0.312546 
659.655072  	0.308727 
661.583888  	0.305053 
663.512704  	0.301584 
665.441520  	0.297934 
667.370336  	0.293051 
669.299152  	0.289946 
671.227968  	0.288804 
673.156784  	0.286323 
675.085600  	0.283771 
677.014416  	0.282051 
678.943232  	0.280426 
680.872048  	0.278868 
682.800864  	0.277752 
684.729680  	0.276446 
686.658496  	0.273986 
688.587312  	0.271841 
690.516128  	0.270503 
692.444944  	0.269382 
694.373760  	0.267872 
696.302576  	0.266439 
698.231392  	0.264048 
700.160208  	0.261659 
702.089024  	0.259194 
704.017840  	0.257595 
705.946656  	0.255136 
707.875472  	0.252503 
709.804288  	0.250622 
711.733104  	0.249204 
713.661920  	0.247518 
715.590736  	0.246485 
717.519552  	0.246186 
719.448368  	0.246997 
721.377184  	0.248191 
723.306000  	0.249124 
725.234816  	0.249215 
727.163632  	0.248081 
729.092448  	0.245659 
731.021264  	0.243273 
732.950080  	0.240577 
734.878896  	0.237562 
736.807712  	0.234882 
738.736528  	0.232961 
740.665344  	0.231202 
742.594160  	0.230105 
744.522976  	0.228961 
746.451792  	0.227904 
748.380608  	0.226885 
750.309424  	0.226380 
752.238240  	0.225782 
754.167056  	0.225308 
756.095872  	0.224683 
758.024688  	0.224082 
759.953504  	0.223918 
761.882320  	0.223758 
763.811136  	0.223920 
765.739952  	0.223659 
767.668768  	0.222603 
769.597584  	0.221549 
771.526400  	0.221764 
773.455216  	0.223790 
775.384032  	0.226509 
777.312848  	0.230476 
779.241664  	0.234442 
781.170480  	0.235485 
783.099296  	0.232586 
785.028112  	0.227682 
786.956928  	0.221877 
788.885744  	0.216641 
790.814560  	0.212796 
792.743376  	0.210373 
794.672192  	0.208763 
796.601008  	0.208323 
798.529824  	0.206820 
800.458640  	0.203554 
802.387456  	0.200207 
804.316272  	0.198648 
806.245088  	0.198067 
808.173904  	0.197770 
810.102720  	0.197803 
812.031536  	0.198083 
813.960352  	0.198203 
815.889168  	0.198020 
817.817984  	0.198114 
819.746800  	0.198286 
821.675616  	0.197903 
823.604432  	0.197262 
825.533248  	0.196520 
827.462064  	0.195614 
829.390880  	0.194476 
831.319696  	0.193384 
833.248512  	0.191804 
835.177328  	0.190034 
837.106144  	0.187608 
839.034960  	0.184753 
840.963776  	0.181745 
842.892592  	0.179404 
844.821408  	0.176692 
846.750224  	0.174099 
848.679040  	0.171883 
850.607856  	0.169759 
852.536672  	0.168337 
854.465488  	0.167139 
856.394304  	0.165911 
858.323120  	0.164548 
860.251936  	0.162988 
862.180752  	0.161194 
864.109568  	0.159590 
866.038384  	0.158051 
867.967200  	0.156457 
869.896016  	0.155330 
871.824832  	0.154292 
873.753648  	0.153701 
875.682464  	0.153763 
877.611280  	0.154429 
879.540096  	0.155077 
881.468912  	0.155869 
883.397728  	0.156447 
885.326544  	0.156706 
887.255360  	0.156375 
889.184176  	0.155686 
891.112992  	0.154854 
893.041808  	0.153269 
894.970624  	0.150938 
896.899440  	0.148275 
898.828256  	0.144937 
900.757072  	0.141421 
902.685888  	0.138597 
904.614704  	0.136946 
906.543520  	0.136570 
908.472336  	0.137645 
910.401152  	0.139728 
912.329968  	0.142652 
914.258784  	0.145596 
916.187600  	0.148311 
918.116416  	0.150315 
920.045232  	0.151120 
921.974048  	0.150689 
923.902864  	0.149933 
925.831680  	0.148759 
927.760496  	0.147653 
929.689312  	0.146632 
931.618128  	0.146427 
933.546944  	0.146693 
935.475760  	0.146878 
937.404576  	0.147059 
939.333392  	0.147690 
941.262208  	0.149048 
943.191024  	0.151439 
945.119840  	0.155185 
947.048656  	0.159961 
948.977472  	0.165889 
950.906288  	0.172948 
952.835104  	0.180451 
954.763920  	0.187874 
956.692736  	0.194492 
958.621552  	0.200045 
960.550368  	0.203384 
962.479184  	0.204537 
964.408000  	0.202776 
966.336816  	0.198877 
968.265632  	0.192306 
970.194448  	0.184044 
972.123264  	0.174505 
974.052080  	0.164406 
975.980896  	0.154731 
977.909712  	0.145753 
979.838528  	0.138336 
981.767344  	0.132474 
983.696160  	0.128453 
985.624976  	0.126588 
987.553792  	0.127145 
989.482608  	0.129616 
991.411424  	0.133863 
993.340240  	0.139606 
995.269056  	0.146592 
997.197872  	0.154131 
999.126688  	0.161314 
1001.055504  	0.168760 
1002.984320  	0.175984 
1004.913136  	0.182750 
1006.841952  	0.188494 
1008.770768  	0.193684 
1010.699584  	0.197537 
1012.628400  	0.200017 
1014.557216  	0.201335 
1016.486032  	0.202202 
1018.414848  	0.202926 
1020.343664  	0.203611 
1022.272480  	0.203882 
1024.201296  	0.204035 
1026.130112  	0.203793 
1028.058928  	0.204427 
1029.987744  	0.205816 
1031.916560  	0.207614 
1033.845376  	0.210170 
1035.774192  	0.213269 
1037.703008  	0.216904 
1039.631824  	0.222501 
1041.560640  	0.229513 
1043.489456  	0.238616 
1045.418272  	0.249675 
1047.347088  	0.262959 
1049.275904  	0.276287 
1051.204720  	0.289243 
1053.133536  	0.299820 
1055.062352  	0.307946 
1056.991168  	0.312789 
1058.919984  	0.315528 
1060.848800  	0.315677 
1062.777616  	0.314313 
1064.706432  	0.310453 
1066.635248  	0.305790 
1068.564064  	0.300867 
1070.492880  	0.295341 
1072.421696  	0.288779 
1074.350512  	0.282722 
1076.279328  	0.277691 
1078.208144  	0.274713 
1080.136960  	0.272336 
1082.065776  	0.269809 
1083.994592  	0.266783 
1085.923408  	0.263788 
1087.852224  	0.259879 
1089.781040  	0.255809 
1091.709856  	0.249776 
1093.638672  	0.242362 
1095.567488  	0.233824 
1097.496304  	0.224937 
1099.425120  	0.215298 
1101.353936  	0.205486 
1103.282752  	0.195415 
1105.211568  	0.185360 
1107.140384  	0.175262 
1109.069200  	0.165530 
1110.998016  	0.156279 
1112.926832  	0.147435 
1114.855648  	0.138987 
1116.784464  	0.130855 
1118.713280  	0.123481 
1120.642096  	0.116781 
1122.570912  	0.110265 
1124.499728  	0.104355 
1126.428544  	0.098796 
1128.357360  	0.093416 
1130.286176  	0.088593 
1132.214992  	0.084624 
1134.143808  	0.081017 
1136.072624  	0.077810 
1138.001440  	0.074811 
1139.930256  	0.072021 
1141.859072  	0.069464 
1143.787888  	0.066595 
1145.716704  	0.064293 
1147.645520  	0.062689 
1149.574336  	0.061445 
1151.503152  	0.060486 
1153.431968  	0.060298 
1155.360784  	0.060364 
1157.289600  	0.060845 
1159.218416  	0.061923 
1161.147232  	0.063416 
1163.076048  	0.064831 
1165.004864  	0.066606 
1166.933680  	0.068497 
1168.862496  	0.070610 
1170.791312  	0.073074 
1172.720128  	0.075557 
1174.648944  	0.078080 
1176.577760  	0.080774 
1178.506576  	0.083490 
1180.435392  	0.086095 
1182.364208  	0.088732 
1184.293024  	0.091595 
1186.221840  	0.094543 
1188.150656  	0.097782 
1190.079472  	0.101679 
1192.008288  	0.106111 
1193.937104  	0.111126 
1195.865920  	0.117138 
1197.794736  	0.123412 
1199.723552  	0.130154 
1201.652368  	0.137122 
1203.581184  	0.144321 
1205.510000  	0.151428 
1207.438816  	0.158261 
1209.367632  	0.165218 
1211.296448  	0.171780 
1213.225264  	0.177601 
1215.154080  	0.182331 
1217.082896  	0.186476 
1219.011712  	0.189594 
1220.940528  	0.192488 
1222.869344  	0.194610 
1224.798160  	0.196124 
1226.726976  	0.196965 
1228.655792  	0.197466 
1230.584608  	0.197093 
1232.513424  	0.196064 
1234.442240  	0.193981 
1236.371056  	0.191052 
1238.299872  	0.187079 
1240.228688  	0.182223 
1242.157504  	0.176748 
1244.086320  	0.170960 
1246.015136  	0.164362 
1247.943952  	0.157592 
1249.872768  	0.150663 
1251.801584  	0.143983 
1253.730400  	0.137289 
1255.659216  	0.130800 
1257.588032  	0.124560 
1259.516848  	0.118759 
1261.445664  	0.113294 
1263.374480  	0.108375 
1265.303296  	0.103858 
1267.232112  	0.100178 
1269.160928  	0.097247 
1271.089744  	0.095205 
1273.018560  	0.094199 
1274.947376  	0.093714 
1276.876192  	0.093144 
1278.805008  	0.092166 
1280.733824  	0.090390 
1282.662640  	0.087510 
1284.591456  	0.083895 
1286.520272  	0.080251 
1288.449088  	0.077208 
1290.377904  	0.074861 
1292.306720  	0.073062 
1294.235536  	0.070953 
1296.164352  	0.068022 
1298.093168  	0.064580 
1300.021984  	0.061075 
1301.950800  	0.057816 
1303.879616  	0.055002 
1305.808432  	0.052782 
1307.737248  	0.050998 
1309.666064  	0.049397 
1311.594880  	0.048388 
1313.523696  	0.047843 
1315.452512  	0.047556 
1317.381328  	0.047706 
1319.310144  	0.048426 
1321.238960  	0.049271 
1323.167776  	0.050116 
1325.096592  	0.050733 
1327.025408  	0.050998 
1328.954224  	0.050675 
1330.883040  	0.050014 
1332.811856  	0.049030 
1334.740672  	0.048009 
1336.669488  	0.046947 
1338.598304  	0.046389 
1340.527120  	0.046206 
1342.455936  	0.045808 
1344.384752  	0.045743 
1346.313568  	0.046283 
1348.242384  	0.047332 
1350.171200  	0.048925 
1352.100016  	0.050822 
1354.028832  	0.052801 
1355.957648  	0.055037 
1357.886464  	0.057063 
1359.815280  	0.058514 
1361.744096  	0.060106 
1363.672912  	0.062388 
1365.601728  	0.063584 
1367.530544  	0.064034 
1369.459360  	0.064408 
1371.388176  	0.063623 
1373.316992  	0.062209 
1375.245808  	0.060985 
1377.174624  	0.059344 
1379.103440  	0.057440 
1381.032256  	0.055703 
1382.961072  	0.054303 
1384.889888  	0.052986 
1386.818704  	0.052024 
1388.747520  	0.051395 
1390.676336  	0.049925 
1392.605152  	0.048000 
1394.533968  	0.047247 
1396.462784  	0.047887 
1398.391600  	0.048140 
1400.320416  	0.049452 
1402.249232  	0.049945 
1404.178048  	0.050901 
1406.106864  	0.052722 
1408.035680  	0.054506 
1409.964496  	0.056201 
1411.893312  	0.058292 
1413.822128  	0.059912 
1415.750944  	0.061026 
1417.679760  	0.061126 
1419.608576  	0.062027 
1421.537392  	0.061881 
1423.466208  	0.060571 
1425.395024  	0.059483 
1427.323840  	0.057511 
1429.252656  	0.055558 
1431.181472  	0.054516 
1433.110288  	0.053784 
1435.039104  	0.053009 
1436.967920  	0.054443 
1438.896736  	0.055854 
1440.825552  	0.055960 
1442.754368  	0.056377 
1444.683184  	0.056232 
1446.612000  	0.055932 
1448.540816  	0.056497 
1450.469632  	0.056892 
1452.398448  	0.056638 
1454.327264  	0.055656 
1456.256080  	0.054714 
1458.184896  	0.057064 
1460.113712  	0.058149 
1462.042528  	0.058047 
1463.971344  	0.057926 
1465.900160  	0.060685 
1467.828976  	0.062919 
1469.757792  	0.064292 
1471.686608  	0.066392 
1473.615424  	0.072430 
1475.544240  	0.076533 
1477.473056  	0.079773 
1479.401872  	0.080889 
1481.330688  	0.081510 
1483.259504  	0.081612 
1485.188320  	0.080413 
1487.117136  	0.078073 
1489.045952  	0.075826 
1490.974768  	0.073951 
1492.903584  	0.071031 
1494.832400  	0.066577 
1496.761216  	0.062657 
1498.690032  	0.059771 
1500.618848  	0.057480 
1502.547664  	0.054289 
1504.476480  	0.049782 
1506.405296  	0.046674 
1508.334112  	0.048855 
1510.262928  	0.048290 
1512.191744  	0.047183 
1514.120560  	0.045723 
1516.049376  	0.044726 
1517.978192  	0.045405 
1519.907008  	0.045402 
1521.835824  	0.048205 
1523.764640  	0.051554 
1525.693456  	0.053962 
1527.622272  	0.056956 
1529.551088  	0.058387 
1531.479904  	0.057839 
1533.408720  	0.057145 
1535.337536  	0.056754 
1537.266352  	0.052843 
1539.195168  	0.047978 
1541.123984  	0.047042 
1543.052800  	0.047504 
1544.981616  	0.047371 
1546.910432  	0.046798 
1548.839248  	0.045435 
1550.768064  	0.045771 
1552.696880  	0.045139 
1554.625696  	0.045351 
1556.554512  	0.043605 
1558.483328  	0.042942 
1560.412144  	0.052151 
1562.340960  	0.054900 
1564.269776  	0.056616 
1566.198592  	0.060436 
1568.127408  	0.062787 
1570.056224  	0.068676 
1571.985040  	0.073641 
1573.913856  	0.074793 
1575.842672  	0.076268 
1577.771488  	0.080117 
1579.700304  	0.080371 
1581.629120  	0.080378 
1583.557936  	0.080597 
1585.486752  	0.082163 
1587.415568  	0.084759 
1589.344384  	0.088933 
1591.273200  	0.093666 
1593.202016  	0.099233 
1595.130832  	0.104686 
1597.059648  	0.110202 
1598.988464  	0.114135 
1600.917280  	0.117239 
1602.846096  	0.118997 
1604.774912  	0.120094 
1606.703728  	0.119644 
1608.632544  	0.119115 
1610.561360  	0.118319 
1612.490176  	0.118007 
1614.418992  	0.116635 
1616.347808  	0.117739 
1618.276624  	0.122283 
1620.205440  	0.125441 
1622.134256  	0.128386 
1624.063072  	0.135854 
1625.991888  	0.142262 
1627.920704  	0.149418 
1629.849520  	0.157700 
1631.778336  	0.163997 
1633.707152  	0.167620 
1635.635968  	0.174727 
1637.564784  	0.183760 
1639.493600  	0.188147 
1641.422416  	0.191498 
1643.351232  	0.192966 
1645.280048  	0.192276 
1647.208864  	0.193944 
1649.137680  	0.194887 
1651.066496  	0.191294 
1652.995312  	0.188406 
1654.924128  	0.192228 
1656.852944  	0.190598 
1658.781760  	0.188346 
1660.710576  	0.185478 
1662.639392  	0.183406 
1664.568208  	0.182543 
1666.497024  	0.180108 
1668.425840  	0.176966 
1670.354656  	0.176109 
1672.283472  	0.175314 
1674.212288  	0.173665 
1676.141104  	0.174568 
1678.069920  	0.174675 
1679.998736  	0.173981 
1681.927552  	0.172248 
1683.856368  	0.171136 
1685.785184  	0.174957 
1687.714000  	0.174099 
1689.642816  	0.172544 
1691.571632  	0.170626 
1693.500448  	0.167116 
1695.429264  	0.162512 
1697.358080  	0.159094 
1699.286896  	0.154191 
1701.215712  	0.151314 
1703.144528  	0.147544 
1705.073344  	0.142363 
1707.002160  	0.137742 
1708.930976  	0.132897 
1710.859792  	0.127216 
1712.788608  	0.120476 
1714.717424  	0.113079 
1716.646240  	0.105616 
1718.575056  	0.099845 
1720.503872  	0.094178 
1722.432688  	0.087964 
1724.361504  	0.081358 
1726.290320  	0.075208 
1728.219136  	0.068804 
1730.147952  	0.062906 
1732.076768  	0.056845 
1734.005584  	0.052047 
1735.934400  	0.048351 
1737.863216  	0.043962 
1739.792032  	0.039442 
1741.720848  	0.036433 
1743.649664  	0.033376 
1745.578480  	0.030246 
1747.507296  	0.026895 
1749.436112  	0.025061 
1751.364928  	0.024652 
1753.293744  	0.024161 
1755.222560  	0.022080 
1757.151376  	0.021426 
1759.080192  	0.020243 
1761.009008  	0.019314 
1762.937824  	0.019447 
1764.866640  	0.018952 
1766.795456  	0.017585 
1768.724272  	0.017295 
1770.653088  	0.015399 
1772.581904  	0.015727 
1774.510720  	0.016781 
1776.439536  	0.016857 
1778.368352  	0.016364 
1780.297168  	0.016427 
1782.225984  	0.016361 
1784.154800  	0.016114 
1786.083616  	0.016159 
1788.012432  	0.015660 
1789.941248  	0.014433 
1791.870064  	0.014411 
1793.798880  	0.015189 
1795.727696  	0.015316 
1797.656512  	0.014716 
1799.585328  	0.014216 
1801.514144  	0.014235 
1803.442960  	0.014238 
1805.371776  	0.013885 
1807.300592  	0.013747 
1809.229408  	0.013252 
1811.158224  	0.013456 
1813.087040  	0.013441 
1815.015856  	0.013133 
1816.944672  	0.013148 
1818.873488  	0.013685 
1820.802304  	0.013605 
1822.731120  	0.013139 
1824.659936  	0.012718 
1826.588752  	0.013209 
1828.517568  	0.012518 
1830.446384  	0.013289 
1832.375200  	0.013603 
1834.304016  	0.013224 
1836.232832  	0.013115 
1838.161648  	0.013523 
1840.090464  	0.013255 
1842.019280  	0.012113 
1843.948096  	0.012044 
1845.876912  	0.013342 
1847.805728  	0.013186 
1849.734544  	0.013363 
1851.663360  	0.013063 
1853.592176  	0.013273 
1855.520992  	0.013163 
1857.449808  	0.013414 
1859.378624  	0.013152 
1861.307440  	0.013217 
1863.236256  	0.012837 
1865.165072  	0.012542 
1867.093888  	0.012054 
1869.022704  	0.012714 
1870.951520  	0.013121 
1872.880336  	0.013164 
1874.809152  	0.012879 
1876.737968  	0.013011 
1878.666784  	0.012918 
1880.595600  	0.012984 
1882.524416  	0.012934 
1884.453232  	0.012892 
1886.382048  	0.012496 
1888.310864  	0.012302 
1890.239680  	0.012745 
1892.168496  	0.013073 
1894.097312  	0.012363 
1896.026128  	0.012704 
1897.954944  	0.012639 
1899.883760  	0.012741 
1901.812576  	0.012673 
1903.741392  	0.012861 
1905.670208  	0.012716 
1907.599024  	0.012644 
1909.527840  	0.012315 
1911.456656  	0.012801 
1913.385472  	0.013038 
1915.314288  	0.012952 
1917.243104  	0.012597 
1919.171920  	0.013207 
1921.100736  	0.012738 
1923.029552  	0.013035 
1924.958368  	0.012718 
1926.887184  	0.012917 
1928.816000  	0.012809 
1930.744816  	0.012504 
1932.673632  	0.012266 
1934.602448  	0.013189 
1936.531264  	0.013320 
1938.460080  	0.012940 
1940.388896  	0.012086 
1942.317712  	0.012134 
1944.246528  	0.012459 
1946.175344  	0.013216 
1948.104160  	0.012642 
1950.032976  	0.012369 
1951.961792  	0.012679 
1953.890608  	0.013433 
1955.819424  	0.012626 
1957.748240  	0.012408 
1959.677056  	0.012178 
1961.605872  	0.012197 
1963.534688  	0.011969 
1965.463504  	0.012875 
1967.392320  	0.012711 
1969.321136  	0.012178 
1971.249952  	0.012280 
1973.178768  	0.013829 
1975.107584  	0.012865 
1977.036400  	0.013062 
1978.965216  	0.014990 
1980.894032  	0.015205 
1982.822848  	0.012920 
1984.751664  	0.012798 
1986.680480  	0.012761 
1988.609296  	0.013520 
1990.538112  	0.013165 
1992.466928  	0.013102 
1994.395744  	0.013149 
1996.324560  	0.013829 
1998.253376  	0.013058 
2000.182192  	0.012881 
2002.111008  	0.013128 
2004.039824  	0.013246 
2005.968640  	0.012747 
2007.897456  	0.013747 
2009.826272  	0.013880 
2011.755088  	0.013552 
2013.683904  	0.013819 
2015.612720  	0.013701 
2017.541536  	0.012525 
2019.470352  	0.012226 
2021.399168  	0.011600 
2023.327984  	0.012981 
2025.256800  	0.013338 
2027.185616  	0.013118 
2029.114432  	0.012845 
2031.043248  	0.014333 
2032.972064  	0.014441 
2034.900880  	0.014590 
2036.829696  	0.014392 
2038.758512  	0.013855 
2040.687328  	0.013395 
2042.616144  	0.013786 
2044.544960  	0.014627 
2046.473776  	0.015232 
2048.402592  	0.014641 
2050.331408  	0.014949 
2052.260224  	0.014177 
2054.189040  	0.014372 
2056.117856  	0.013537 
2058.046672  	0.013069 
2059.975488  	0.012959 
2061.904304  	0.013129 
2063.833120  	0.013925 
2065.761936  	0.014632 
2067.690752  	0.014092 
2069.619568  	0.014084 
2071.548384  	0.013640 
2073.477200  	0.013671 
2075.406016  	0.014077 
2077.334832  	0.014659 
2079.263648  	0.014113 
2081.192464  	0.013836 
2083.121280  	0.014304 
2085.050096  	0.014299 
2086.978912  	0.013872 
2088.907728  	0.014001 
2090.836544  	0.013418 
2092.765360  	0.012856 
2094.694176  	0.013093 
2096.622992  	0.013618 
2098.551808  	0.013606 
2100.480624  	0.013789 
2102.409440  	0.013504 
2104.338256  	0.013828 
2106.267072  	0.013918 
2108.195888  	0.014052 
2110.124704  	0.014400 
2112.053520  	0.014694 
2113.982336  	0.014552 
2115.911152  	0.014884 
2117.839968  	0.014325 
2119.768784  	0.013472 
2121.697600  	0.012812 
2123.626416  	0.012759 
2125.555232  	0.012862 
2127.484048  	0.012946 
2129.412864  	0.012339 
2131.341680  	0.011686 
2133.270496  	0.012285 
2135.199312  	0.012770 
2137.128128  	0.012995 
2139.056944  	0.013158 
2140.985760  	0.012542 
2142.914576  	0.013471 
2144.843392  	0.013389 
2146.772208  	0.013650 
2148.701024  	0.014062 
2150.629840  	0.014322 
2152.558656  	0.012708 
2154.487472  	0.011658 
2156.416288  	0.011500 
2158.345104  	0.014474 
2160.273920  	0.017841 
2162.202736  	0.018567 
2164.131552  	0.017370 
2166.060368  	0.018181 
2167.989184  	0.016415 
2169.918000  	0.014461 
2171.846816  	0.014061 
2173.775632  	0.015149 
2175.704448  	0.015760 
2177.633264  	0.015880 
2179.562080  	0.015025 
2181.490896  	0.015093 
2183.419712  	0.015373 
2185.348528  	0.015786 
2187.277344  	0.015834 
2189.206160  	0.015871 
2191.134976  	0.015688 
2193.063792  	0.016251 
2194.992608  	0.016246 
2196.921424  	0.015791 
2198.850240  	0.016033 
2200.779056  	0.016014 
2202.707872  	0.015811 
2204.636688  	0.015545 
2206.565504  	0.015347 
2208.494320  	0.016099 
2210.423136  	0.015242 
2212.351952  	0.014904 
2214.280768  	0.015079 
2216.209584  	0.015194 
2218.138400  	0.015142 
2220.067216  	0.015498 
2221.996032  	0.015504 
2223.924848  	0.014732 
2225.853664  	0.014993 
2227.782480  	0.016034 
2229.711296  	0.016233 
2231.640112  	0.015884 
2233.568928  	0.015420 
2235.497744  	0.015405 
2237.426560  	0.015205 
2239.355376  	0.015358 
2241.284192  	0.015235 
2243.213008  	0.014988 
2245.141824  	0.014700 
2247.070640  	0.014654 
2248.999456  	0.014357 
2250.928272  	0.014435 
2252.857088  	0.014607 
2254.785904  	0.014995 
2256.714720  	0.015670 
2258.643536  	0.016154 
2260.572352  	0.015592 
2262.501168  	0.015614 
2264.429984  	0.015856 
2266.358800  	0.016234 
2268.287616  	0.016227 
2270.216432  	0.016221 
2272.145248  	0.016060 
2274.074064  	0.016105 
2276.002880  	0.015814 
2277.931696  	0.016353 
2279.860512  	0.017055 
2281.789328  	0.017297 
2283.718144  	0.016889 
2285.646960  	0.016910 
2287.575776  	0.017126 
2289.504592  	0.016902 
2291.433408  	0.016511 
2293.362224  	0.016431 
2295.291040  	0.016475 
2297.219856  	0.016733 
2299.148672  	0.016775 
2301.077488  	0.016754 
2303.006304  	0.016672 
2304.935120  	0.016463 
2306.863936  	0.016126 
2308.792752  	0.015952 
2310.721568  	0.016170 
2312.650384  	0.016256 
2314.579200  	0.015894 
2316.508016  	0.015663 
2318.436832  	0.015138 
2320.365648  	0.014878 
2322.294464  	0.014801 
2324.223280  	0.014282 
2326.152096  	0.012449 
2328.080912  	0.011272 
2330.009728  	0.010924 
2331.938544  	0.010903 
2333.867360  	0.010002 
2335.796176  	0.009221 
2337.724992  	0.008862 
2339.653808  	0.008812 
2341.582624  	0.008967 
2343.511440  	0.010310 
2345.440256  	0.012288 
2347.369072  	0.013649 
2349.297888  	0.012420 
2351.226704  	0.010397 
2353.155520  	0.008888 
2355.084336  	0.007294 
2357.013152  	0.006492 
2358.941968  	0.006577 
2360.870784  	0.006404 
2362.799600  	0.006924 
2364.728416  	0.007855 
2366.657232  	0.009139 
2368.586048  	0.010044 
2370.514864  	0.011501 
2372.443680  	0.012979 
2374.372496  	0.014376 
2376.301312  	0.015527 
2378.230128  	0.016606 
2380.158944  	0.016730 
2382.087760  	0.016787 
2384.016576  	0.016794 
2385.945392  	0.016634 
2387.874208  	0.016279 
2389.803024  	0.016093 
2391.731840  	0.015994 
2393.660656  	0.016120 
2395.589472  	0.016352 
2397.518288  	0.016400 
2399.447104  	0.016388 
2401.375920  	0.016297 
2403.304736  	0.016336 
2405.233552  	0.016731 
2407.162368  	0.016943 
2409.091184  	0.016772 
2411.020000  	0.016712 
2412.948816  	0.017017 
2414.877632  	0.017155 
2416.806448  	0.017258 
2418.735264  	0.017316 
2420.664080  	0.017360 
2422.592896  	0.017059 
2424.521712  	0.016960 
2426.450528  	0.017147 
2428.379344  	0.017109 
2430.308160  	0.017168 
2432.236976  	0.017339 
2434.165792  	0.017678 
2436.094608  	0.018118 
2438.023424  	0.018158 
2439.952240  	0.018137 
2441.881056  	0.018397 
2443.809872  	0.018525 
2445.738688  	0.018347 
2447.667504  	0.018319 
2449.596320  	0.018231 
2451.525136  	0.018190 
2453.453952  	0.018256 
2455.382768  	0.018551 
2457.311584  	0.018928 
2459.240400  	0.018920 
2461.169216  	0.018562 
2463.098032  	0.018597 
2465.026848  	0.018669 
2466.955664  	0.018614 
2468.884480  	0.018487 
2470.813296  	0.018480 
2472.742112  	0.018433 
2474.670928  	0.018512 
2476.599744  	0.018666 
2478.528560  	0.018741 
2480.457376  	0.018939 
2482.386192  	0.019057 
2484.315008  	0.019088 
2486.243824  	0.019164 
2488.172640  	0.019208 
2490.101456  	0.019183 
2492.030272  	0.019206 
2493.959088  	0.019204 
2495.887904  	0.019229 
2497.816720  	0.019464 
2499.745536  	0.019468 
2501.674352  	0.019703 
2503.603168  	0.019728 
2505.531984  	0.019761 
2507.460800  	0.019858 
2509.389616  	0.019872 
2511.318432  	0.019588 
2513.247248  	0.019658 
2515.176064  	0.019867 
2517.104880  	0.020231 
2519.033696  	0.020432 
2520.962512  	0.020461 
2522.891328  	0.020579 
2524.820144  	0.020607 
2526.748960  	0.020487 
2528.677776  	0.020555 
2530.606592  	0.020600 
2532.535408  	0.020782 
2534.464224  	0.020862 
2536.393040  	0.020840 
2538.321856  	0.020776 
2540.250672  	0.021031 
2542.179488  	0.021133 
2544.108304  	0.021378 
2546.037120  	0.021366 
2547.965936  	0.021566 
2549.894752  	0.021727 
2551.823568  	0.021751 
2553.752384  	0.021717 
2555.681200  	0.021646 
2557.610016  	0.021671 
2559.538832  	0.021755 
2561.467648  	0.021790 
2563.396464  	0.022005 
2565.325280  	0.022323 
2567.254096  	0.022484 
2569.182912  	0.022411 
2571.111728  	0.022461 
2573.040544  	0.022414 
2574.969360  	0.022256 
2576.898176  	0.022379 
2578.826992  	0.022653 
2580.755808  	0.022698 
2582.684624  	0.022838 
2584.613440  	0.022775 
2586.542256  	0.022944 
2588.471072  	0.023146 
2590.399888  	0.023075 
2592.328704  	0.023109 
2594.257520  	0.023448 
2596.186336  	0.023785 
2598.115152  	0.023783 
2600.043968  	0.023640 
2601.972784  	0.023728 
2603.901600  	0.023870 
2605.830416  	0.023945 
2607.759232  	0.023836 
2609.688048  	0.024001 
2611.616864  	0.024285 
2613.545680  	0.024419 
2615.474496  	0.024396 
2617.403312  	0.024478 
2619.332128  	0.024720 
2621.260944  	0.024886 
2623.189760  	0.025016 
2625.118576  	0.025124 
2627.047392  	0.025159 
2628.976208  	0.025409 
2630.905024  	0.025513 
2632.833840  	0.025675 
2634.762656  	0.025838 
2636.691472  	0.025856 
2638.620288  	0.025821 
2640.549104  	0.025979 
2642.477920  	0.026125 
2644.406736  	0.026221 
2646.335552  	0.026428 
2648.264368  	0.026636 
2650.193184  	0.026817 
2652.122000  	0.026982 
2654.050816  	0.027135 
2655.979632  	0.027139 
2657.908448  	0.027168 
2659.837264  	0.027267 
2661.766080  	0.027210 
2663.694896  	0.027229 
2665.623712  	0.027215 
2667.552528  	0.027165 
2669.481344  	0.027266 
2671.410160  	0.027611 
2673.338976  	0.027847 
2675.267792  	0.027874 
2677.196608  	0.027982 
2679.125424  	0.028220 
2681.054240  	0.028292 
2682.983056  	0.028375 
2684.911872  	0.028594 
2686.840688  	0.028763 
2688.769504  	0.028902 
2690.698320  	0.028972 
2692.627136  	0.029023 
2694.555952  	0.029096 
2696.484768  	0.029153 
2698.413584  	0.029238 
2700.342400  	0.029302 
2702.271216  	0.029434 
2704.200032  	0.029653 
2706.128848  	0.029900 
2708.057664  	0.030062 
2709.986480  	0.030097 
2711.915296  	0.030120 
2713.844112  	0.030203 
2715.772928  	0.030354 
2717.701744  	0.030518 
2719.630560  	0.030630 
2721.559376  	0.030719 
2723.488192  	0.030841 
2725.417008  	0.031128 
2727.345824  	0.031314 
2729.274640  	0.031378 
2731.203456  	0.031499 
2733.132272  	0.031674 
2735.061088  	0.031838 
2736.989904  	0.031955 
2738.918720  	0.032026 
2740.847536  	0.032008 
2742.776352  	0.032132 
2744.705168  	0.032299 
2746.633984  	0.032381 
2748.562800  	0.032552 
2750.491616  	0.032730 
2752.420432  	0.032779 
2754.349248  	0.032734 
2756.278064  	0.032774 
2758.206880  	0.032835 
2760.135696  	0.033101 
2762.064512  	0.033163 
2763.993328  	0.033181 
2765.922144  	0.033244 
2767.850960  	0.033204 
2769.779776  	0.033221 
2771.708592  	0.033401 
2773.637408  	0.033451 
2775.566224  	0.033531 
2777.495040  	0.033568 
2779.423856  	0.033574 
2781.352672  	0.033751 
2783.281488  	0.033883 
2785.210304  	0.033926 
2787.139120  	0.034118 
2789.067936  	0.034224 
2790.996752  	0.034228 
2792.925568  	0.034416 
2794.854384  	0.034605 
2796.783200  	0.034640 
2798.712016  	0.034567 
2800.640832  	0.034661 
2802.569648  	0.034859 
2804.498464  	0.034963 
2806.427280  	0.035027 
2808.356096  	0.035160 
2810.284912  	0.035367 
2812.213728  	0.035338 
2814.142544  	0.035328 
2816.071360  	0.035500 
2818.000176  	0.035512 
2819.928992  	0.035396 
2821.857808  	0.035489 
2823.786624  	0.035625 
2825.715440  	0.035668 
2827.644256  	0.035589 
2829.573072  	0.035602 
2831.501888  	0.035619 
2833.430704  	0.035503 
2835.359520  	0.035366 
2837.288336  	0.035301 
2839.217152  	0.035237 
2841.145968  	0.035161 
2843.074784  	0.035150 
2845.003600  	0.035335 
2846.932416  	0.035707 
2848.861232  	0.036046 
2850.790048  	0.036042 
2852.718864  	0.035847 
2854.647680  	0.035607 
2856.576496  	0.035501 
2858.505312  	0.035332 
2860.434128  	0.035256 
2862.362944  	0.035224 
2864.291760  	0.035143 
2866.220576  	0.035165 
2868.149392  	0.035426 
2870.078208  	0.035772 
2872.007024  	0.036116 
2873.935840  	0.036483 
2875.864656  	0.036923 
2877.793472  	0.037489 
2879.722288  	0.037923 
2881.651104  	0.038212 
2883.579920  	0.038440 
2885.508736  	0.038715 
2887.437552  	0.038962 
2889.366368  	0.039110 
2891.295184  	0.039204 
2893.224000  	0.039311 
2895.152816  	0.039568 
2897.081632  	0.039364 
2899.010448  	0.039019 
2900.939264  	0.039084 
2902.868080  	0.039550 
2904.796896  	0.039896 
2906.725712  	0.040183 
2908.654528  	0.040462 
2910.583344  	0.040880 
2912.512160  	0.041712 
2914.440976  	0.042604 
2916.369792  	0.043246 
2918.298608  	0.043771 
2920.227424  	0.044316 
2922.156240  	0.044906 
2924.085056  	0.045328 
2926.013872  	0.045862 
2927.942688  	0.046429 
2929.871504  	0.046965 
2931.800320  	0.047431 
2933.729136  	0.047953 
2935.657952  	0.048233 
2937.586768  	0.048559 
2939.515584  	0.048860 
2941.444400  	0.049074 
2943.373216  	0.049318 
2945.302032  	0.049468 
2947.230848  	0.049576 
2949.159664  	0.049495 
2951.088480  	0.049281 
2953.017296  	0.049300 
2954.946112  	0.049145 
2956.874928  	0.048846 
2958.803744  	0.048522 
2960.732560  	0.048090 
2962.661376  	0.047852 
2964.590192  	0.047677 
2966.519008  	0.047317 
2968.447824  	0.046895 
2970.376640  	0.046625 
2972.305456  	0.046251 
2974.234272  	0.046041 
2976.163088  	0.045863 
2978.091904  	0.045737 
2980.020720  	0.045664 
2981.949536  	0.045635 
2983.878352  	0.045452 
2985.807168  	0.045142 
2987.735984  	0.045151 
2989.664800  	0.045472 
2991.593616  	0.046014 
2993.522432  	0.046170 
2995.451248  	0.046208 
2997.380064  	0.046408 
2999.308880  	0.046678 
3001.237696  	0.046915 
3003.166512  	0.047105 
3005.095328  	0.047440 
3007.024144  	0.048024 
3008.952960  	0.048387 
3010.881776  	0.048714 
3012.810592  	0.049060 
3014.739408  	0.049330 
3016.668224  	0.049776 
3018.597040  	0.050101 
3020.525856  	0.050260 
3022.454672  	0.050603 
3024.383488  	0.051012 
3026.312304  	0.051364 
3028.241120  	0.051527 
3030.169936  	0.051510 
3032.098752  	0.051904 
3034.027568  	0.052354 
3035.956384  	0.052610 
3037.885200  	0.052927 
3039.814016  	0.053285 
3041.742832  	0.053648 
3043.671648  	0.054006 
3045.600464  	0.054111 
3047.529280  	0.054248 
3049.458096  	0.054560 
3051.386912  	0.054824 
3053.315728  	0.055231 
3055.244544  	0.055645 
3057.173360  	0.056243 
3059.102176  	0.056599 
3061.030992  	0.056779 
3062.959808  	0.057035 
3064.888624  	0.057364 
3066.817440  	0.057900 
3068.746256  	0.058373 
3070.675072  	0.058721 
3072.603888  	0.059191 
3074.532704  	0.059754 
3076.461520  	0.060243 
3078.390336  	0.060576 
3080.319152  	0.060913 
3082.247968  	0.061457 
3084.176784  	0.062044 
3086.105600  	0.062331 
3088.034416  	0.062523 
3089.963232  	0.062916 
3091.892048  	0.063405 
3093.820864  	0.063769 
3095.749680  	0.064207 
3097.678496  	0.064542 
3099.607312  	0.064836 
3101.536128  	0.065110 
3103.464944  	0.065561 
3105.393760  	0.066118 
3107.322576  	0.066545 
3109.251392  	0.066828 
3111.180208  	0.067097 
3113.109024  	0.067403 
3115.037840  	0.067565 
3116.966656  	0.067876 
3118.895472  	0.068222 
3120.824288  	0.068423 
3122.753104  	0.068835 
3124.681920  	0.069206 
3126.610736  	0.069432 
3128.539552  	0.069515 
3130.468368  	0.069543 
3132.397184  	0.069923 
3134.326000  	0.070282 
3136.254816  	0.070521 
3138.183632  	0.070811 
3140.112448  	0.070970 
3142.041264  	0.071131 
3143.970080  	0.071346 
3145.898896  	0.071639 
3147.827712  	0.071919 
3149.756528  	0.072289 
3151.685344  	0.072866 
3153.614160  	0.073135 
3155.542976  	0.073204 
3157.471792  	0.073486 
3159.400608  	0.074040 
3161.329424  	0.074384 
3163.258240  	0.074598 
3165.187056  	0.074937 
3167.115872  	0.075301 
3169.044688  	0.075457 
3170.973504  	0.075492 
3172.902320  	0.075686 
3174.831136  	0.075879 
3176.759952  	0.075906 
3178.688768  	0.076216 
3180.617584  	0.076407 
3182.546400  	0.076218 
3184.475216  	0.076442 
3186.404032  	0.076719 
3188.332848  	0.076655 
3190.261664  	0.076798 
3192.190480  	0.076912 
3194.119296  	0.076570 
3196.048112  	0.076417 
3197.976928  	0.076745 
3199.905744  	0.076973 
3201.834560  	0.076953 
3203.763376  	0.076849 
3205.692192  	0.076719 
3207.621008  	0.076563 
3209.549824  	0.076437 
3211.478640  	0.076351 
3213.407456  	0.076200 
3215.336272  	0.076160 
3217.265088  	0.075986 
3219.193904  	0.075769 
3221.122720  	0.075529 
3223.051536  	0.075119 
3224.980352  	0.074758 
3226.909168  	0.074557 
3228.837984  	0.074430 
3230.766800  	0.074451 
3232.695616  	0.074396 
3234.624432  	0.074146 
3236.553248  	0.074013 
3238.482064  	0.073872 
3240.410880  	0.073685 
3242.339696  	0.073695 
3244.268512  	0.073675 
3246.197328  	0.073761 
3248.126144  	0.073651 
3250.054960  	0.073543 
3251.983776  	0.073524 
3253.912592  	0.073648 
3255.841408  	0.073771 
3257.770224  	0.073861 
3259.699040  	0.074105 
3261.627856  	0.074206 
3263.556672  	0.074220 
3265.485488  	0.074143 
3267.414304  	0.074187 
3269.343120  	0.074439 
3271.271936  	0.074678 
3273.200752  	0.074891 
3275.129568  	0.075111 
3277.058384  	0.075211 
3278.987200  	0.075308 
3280.916016  	0.075374 
3282.844832  	0.075412 
3284.773648  	0.075492 
3286.702464  	0.075708 
3288.631280  	0.075860 
3290.560096  	0.075921 
3292.488912  	0.076240 
3294.417728  	0.076340 
3296.346544  	0.076337 
3298.275360  	0.076419 
3300.204176  	0.076642 
3302.132992  	0.076820 
3304.061808  	0.077183 
3305.990624  	0.077617 
3307.919440  	0.077735 
3309.848256  	0.077787 
3311.777072  	0.077889 
3313.705888  	0.078205 
3315.634704  	0.078702 
3317.563520  	0.078955 
3319.492336  	0.078928 
3321.421152  	0.079086 
3323.349968  	0.079301 
3325.278784  	0.079426 
3327.207600  	0.079451 
3329.136416  	0.079422 
3331.065232  	0.079385 
3332.994048  	0.079447 
3334.922864  	0.079509 
3336.851680  	0.079378 
3338.780496  	0.079201 
3340.709312  	0.079153 
3342.638128  	0.079229 
3344.566944  	0.079076 
3346.495760  	0.078744 
3348.424576  	0.078456 
3350.353392  	0.078329 
3352.282208  	0.078073 
3354.211024  	0.077851 
3356.139840  	0.077605 
3358.068656  	0.077224 
3359.997472  	0.076874 
3361.926288  	0.076631 
3363.855104  	0.076307 
3365.783920  	0.075982 
3367.712736  	0.075907 
3369.641552  	0.075679 
3371.570368  	0.075181 
3373.499184  	0.074845 
3375.428000  	0.074502 
3377.356816  	0.074159 
3379.285632  	0.073959 
3381.214448  	0.073616 
3383.143264  	0.073272 
3385.072080  	0.073147 
3387.000896  	0.072813 
3388.929712  	0.072416 
3390.858528  	0.071915 
3392.787344  	0.071531 
3394.716160  	0.071146 
3396.644976  	0.070884 
3398.573792  	0.070730 
3400.502608  	0.070202 
3402.431424  	0.069653 
3404.360240  	0.069378 
3406.289056  	0.069064 
3408.217872  	0.068605 
3410.146688  	0.068267 
3412.075504  	0.068133 
3414.004320  	0.068063 
3415.933136  	0.067643 
3417.861952  	0.066926 
3419.790768  	0.066538 
3421.719584  	0.066303 
3423.648400  	0.065849 
3425.577216  	0.065626 
3427.506032  	0.065308 
3429.434848  	0.064543 
3431.363664  	0.064104 
3433.292480  	0.063848 
3435.221296  	0.063630 
3437.150112  	0.063299 
3439.078928  	0.062869 
3441.007744  	0.062478 
3442.936560  	0.062370 
3444.865376  	0.061890 
3446.794192  	0.061246 
3448.723008  	0.061064 
3450.651824  	0.060585 
3452.580640  	0.060051 
3454.509456  	0.059548 
3456.438272  	0.059005 
3458.367088  	0.058587 
3460.295904  	0.058274 
3462.224720  	0.057793 
3464.153536  	0.057227 
3466.082352  	0.056703 
3468.011168  	0.056367 
3469.939984  	0.055926 
3471.868800  	0.055318 
3473.797616  	0.054961 
3475.726432  	0.054567 
3477.655248  	0.053785 
3479.584064  	0.053043 
3481.512880  	0.052664 
3483.441696  	0.052256 
3485.370512  	0.051506 
3487.299328  	0.051001 
3489.228144  	0.050624 
3491.156960  	0.049922 
3493.085776  	0.049418 
3495.014592  	0.049022 
3496.943408  	0.048681 
3498.872224  	0.048153 
3500.801040  	0.047587 
3502.729856  	0.047163 
3504.658672  	0.046900 
3506.587488  	0.046087 
3508.516304  	0.045460 
3510.445120  	0.045414 
3512.373936  	0.045289 
3514.302752  	0.044909 
3516.231568  	0.044249 
3518.160384  	0.043715 
3520.089200  	0.043410 
3522.018016  	0.042887 
3523.946832  	0.042820 
3525.875648  	0.042390 
3527.804464  	0.041904 
3529.733280  	0.041630 
3531.662096  	0.041280 
3533.590912  	0.040766 
3535.519728  	0.040417 
3537.448544  	0.040404 
3539.377360  	0.040010 
3541.306176  	0.039258 
3543.234992  	0.038395 
3545.163808  	0.038478 
3547.092624  	0.038739 
3549.021440  	0.037808 
3550.950256  	0.036796 
3552.879072  	0.037046 
3554.807888  	0.036980 
3556.736704  	0.036336 
3558.665520  	0.035784 
3560.594336  	0.035521 
3562.523152  	0.034747 
3564.451968  	0.033332 
3566.380784  	0.033254 
3568.309600  	0.035005 
3570.238416  	0.034593 
3572.167232  	0.033261 
3574.096048  	0.032549 
3576.024864  	0.032164 
3577.953680  	0.031784 
3579.882496  	0.031505 
3581.811312  	0.031054 
3583.740128  	0.029680 
3585.668944  	0.028104 
3587.597760  	0.029425 
3589.526576  	0.030355 
3591.455392  	0.028312 
3593.384208  	0.027376 
3595.313024  	0.027416 
3597.241840  	0.026877 
3599.170656  	0.025828 
3601.099472  	0.025711 
3603.028288  	0.025569 
3604.957104  	0.024210 
3606.885920  	0.022883 
3608.814736  	0.023802 
3610.743552  	0.023161 
3612.672368  	0.021777 
3614.601184  	0.021685 
3616.530000  	0.020126 
3618.458816  	0.019704 
3620.387632  	0.021278 
3622.316448  	0.020716 
3624.245264  	0.018986 
3626.174080  	0.016522 
3628.102896  	0.015772 
3630.031712  	0.019759 
3631.960528  	0.018467 
3633.889344  	0.017229 
3635.818160  	0.016784 
3637.746976  	0.016100 
3639.675792  	0.015736 
3641.604608  	0.015244 
3643.533424  	0.014067 
3645.462240  	0.011258 
3647.391056  	0.009814 
3649.319872  	0.011356 
3651.248688  	0.014416 
3653.177504  	0.013057 
3655.106320  	0.010929 
3657.035136  	0.012387 
3658.963952  	0.012378 
3660.892768  	0.011353 
3662.821584  	0.010603 
3664.750400  	0.010036 
3666.679216  	0.008299 
3668.608032  	0.006398 
3670.536848  	0.008781 
3672.465664  	0.008217 
3674.394480  	0.005333 
3676.323296  	0.009724 
3678.252112  	0.010044 
3680.180928  	0.009578 
3682.109744  	0.009272 
3684.038560  	0.008469 
3685.967376  	0.006398 
3687.896192  	0.005441 
3689.825008  	0.007432 
3691.753824  	0.008883 
3693.682640  	0.008860 
3695.611456  	0.008303 
3697.540272  	0.008297 
3699.469088  	0.007211 
3701.397904  	0.007784 
3703.326720  	0.009176 
3705.255536  	0.008348 
3707.184352  	0.006452 
3709.113168  	0.005293 
3711.041984  	0.006475 
3712.970800  	0.009390 
3714.899616  	0.009399 
3716.828432  	0.008062 
3718.757248  	0.007384 
3720.686064  	0.006870 
3722.614880  	0.007494 
3724.543696  	0.007805 
3726.472512  	0.008485 
3728.401328  	0.008289 
3730.330144  	0.005609 
3732.258960  	0.004728 
3734.187776  	0.005591 
3736.116592  	0.008902 
3738.045408  	0.009317 
3739.974224  	0.007355 
3741.903040  	0.004716 
3743.831856  	0.005176 
3745.760672  	0.009482 
3747.689488  	0.005768 
3749.618304  	0.004694 
3751.547120  	0.007698 
3753.475936  	0.010126 
3755.404752  	0.008447 
3757.333568  	0.007439 
3759.262384  	0.008084 
3761.191200  	0.009531 
3763.120016  	0.008400 
3765.048832  	0.007991 
3766.977648  	0.007924 
3768.906464  	0.007427 
3770.835280  	0.009426 
3772.764096  	0.009730 
3774.692912  	0.008962 
3776.621728  	0.007676 
3778.550544  	0.007263 
3780.479360  	0.009121 
3782.408176  	0.008698 
3784.336992  	0.008235 
3786.265808  	0.008820 
3788.194624  	0.009001 
3790.123440  	0.008863 
3792.052256  	0.008676 
3793.981072  	0.007583 
3795.909888  	0.007293 
3797.838704  	0.007538 
3799.767520  	0.005357 
3801.696336  	0.007629 
3803.625152  	0.008701 
3805.553968  	0.006445 
3807.482784  	0.008981 
3809.411600  	0.009874 
3811.340416  	0.008763 
3813.269232  	0.006914 
3815.198048  	0.006078 
3817.126864  	0.008104 
3819.055680  	0.005717 
3820.984496  	0.006916 
3822.913312  	0.010141 
3824.842128  	0.008353 
3826.770944  	0.008171 
3828.699760  	0.008083 
3830.628576  	0.007121 
3832.557392  	0.007351 
3834.486208  	0.006520 
3836.415024  	0.005515 
3838.343840  	0.007196 
3840.272656  	0.008475 
3842.201472  	0.008207 
3844.130288  	0.008808 
3846.059104  	0.009082 
3847.987920  	0.007585 
3849.916736  	0.005245 
3851.845552  	0.002960 
3853.774368  	0.008480 
3855.703184  	0.011372 
3857.632000  	0.009457 
3859.560816  	0.007823 
3861.489632  	0.006975 
3863.418448  	0.007251 
3865.347264  	0.008533 
3867.276080  	0.007030 
3869.204896  	0.006291 
3871.133712  	0.009320 
3873.062528  	0.008321 
3874.991344  	0.009455 
3876.920160  	0.008741 
3878.848976  	0.007218 
3880.777792  	0.008796 
3882.706608  	0.008703 
3884.635424  	0.007416 
3886.564240  	0.009706 
3888.493056  	0.008568 
3890.421872  	0.007807 
3892.350688  	0.009625 
3894.279504  	0.009347 
3896.208320  	0.007781 
3898.137136  	0.007042 
3900.065952  	0.007692 
3901.994768  	0.008027 
3903.923584  	0.009108 
3905.852400  	0.010393 
3907.781216  	0.009804 
3909.710032  	0.009152 
3911.638848  	0.009018 
3913.567664  	0.008641 
3915.496480  	0.008303 
3917.425296  	0.009375 
3919.354112  	0.009793 
3921.282928  	0.009593 
3923.211744  	0.008962 
3925.140560  	0.009393 
3927.069376  	0.009274 
3928.998192  	0.008771 
3930.927008  	0.009149 
3932.855824  	0.010071 
3934.784640  	0.009942 
3936.713456  	0.009582 
3938.642272  	0.009560 
3940.571088  	0.009077 
3942.499904  	0.009533 
3944.428720  	0.010043 
3946.357536  	0.009348 
3948.286352  	0.009396 
3950.215168  	0.009477 
3952.143984  	0.009354 
3954.072800  	0.009362 
3956.001616  	0.009290 
3957.930432  	0.009387 
3959.859248  	0.009587 
3961.788064  	0.009731 
3963.716880  	0.009815 
3965.645696  	0.009564 
3967.574512  	0.009591 
3969.503328  	0.009714 
3971.432144  	0.009502 
3973.360960  	0.009494 
3975.289776  	0.009906 
3977.218592  	0.010029 
3979.147408  	0.009830 
3981.076224  	0.009639 
3983.005040  	0.009614 
3984.933856  	0.009733 
3986.862672  	0.009703 
3988.791488  	0.009515 
3990.720304  	0.009666 
3992.649120  	0.009800 
3994.577936  	0.009713 
3996.506752  	0.009692 
3998.435568  	0.009823 
4000.364384  	0.009820 